Fp1,Fp2,F3,F4,C3,C4,P3,P4,O1,O2,F7,F8,T7,T8,P7,P8,Fz,Cz,Pz
85.0000,261.0000,52.0000,226.0000,52.0000,200.0000,126.0000,310.0000,-20.0000,236.0000,126.0000,200.0000,-20.0000,200.0000,-20.0000,347.0000,85.0000,50.0000,85.0000
156.0000,508.0000,126.0000,226.0000,126.0000,236.0000,89.0000,310.0000,-57.0000,273.0000,273.0000,420.0000,16.0000,310.0000,-57.0000,89.0000,297.0000,121.0000,85.0000
297.0000,473.0000,89.0000,332.0000,52.0000,163.0000,-167.0000,236.0000,-20.0000,126.0000,236.0000,273.0000,-57.0000,126.0000,-167.0000,273.0000,402.0000,15.0000,-160.0000
191.0000,402.0000,89.0000,156.0000,89.0000,89.0000,-94.0000,163.0000,-167.0000,200.0000,89.0000,200.0000,-57.0000,52.0000,-167.0000,89.0000,85.0000,156.0000,-90.0000
156.0000,402.0000,89.0000,121.0000,52.0000,126.0000,-131.0000,89.0000,16.0000,89.0000,126.0000,200.0000,-20.0000,52.0000,-131.0000,52.0000,332.0000,121.0000,-55.0000
50.0000,156.0000,16.0000,121.0000,16.0000,16.0000,-167.0000,126.0000,-94.0000,126.0000,-94.0000,-20.0000,-94.0000,-131.0000,-204.0000,200.0000,15.0000,50.0000,-90.0000
-55.0000,191.0000,16.0000,-19.0000,52.0000,-20.0000,16.0000,163.0000,16.0000,310.0000,-94.0000,52.0000,-57.0000,-57.0000,-94.0000,-20.0000,-19.0000,50.0000,121.0000
-19.0000,50.0000,-94.0000,15.0000,-94.0000,-94.0000,-131.0000,163.0000,126.0000,236.0000,-94.0000,-57.0000,-131.0000,-167.0000,-131.0000,236.0000,85.0000,-125.0000,15.0000
-90.0000,-19.0000,-131.0000,-90.0000,-94.0000,-167.0000,-94.0000,126.0000,-57.0000,384.0000,-167.0000,-131.0000,-204.0000,-167.0000,-167.0000,89.0000,-231.0000,-55.0000,50.0000
-55.0000,50.0000,-57.0000,-55.0000,-57.0000,-94.0000,-204.0000,52.0000,-20.0000,273.0000,-20.0000,16.0000,-167.0000,-57.0000,-167.0000,-20.0000,85.0000,-55.0000,121.0000
-55.0000,-90.0000,-131.0000,15.0000,-131.0000,-204.0000,-315.0000,-20.0000,-94.0000,236.0000,-131.0000,-94.0000,-241.0000,-204.0000,-241.0000,126.0000,-90.0000,-160.0000,-19.0000
-160.0000,15.0000,-94.0000,-125.0000,-94.0000,-204.0000,-94.0000,16.0000,-94.0000,420.0000,-167.0000,16.0000,-278.0000,-94.0000,-131.0000,-94.0000,-160.0000,-55.0000,156.0000
-125.0000,-19.0000,-131.0000,-19.0000,-167.0000,-204.0000,-204.0000,-20.0000,52.0000,163.0000,-167.0000,-20.0000,-315.0000,-167.0000,-167.0000,52.0000,121.0000,-90.0000,85.0000
-195.0000,-90.0000,-204.0000,-55.0000,-204.0000,-204.0000,-131.0000,16.0000,-131.0000,163.0000,-315.0000,-57.0000,-315.0000,-167.0000,-167.0000,-57.0000,-231.0000,-19.0000,121.0000
-195.0000,50.0000,-167.0000,-55.0000,-167.0000,-57.0000,-57.0000,16.0000,-20.0000,89.0000,-167.0000,163.0000,-241.0000,16.0000,-57.0000,-204.0000,50.0000,15.0000,191.0000
-125.0000,-19.0000,-241.0000,50.0000,-241.0000,-57.0000,-204.0000,16.0000,-57.0000,-57.0000,-204.0000,16.0000,-278.0000,-57.0000,-94.0000,16.0000,-19.0000,-90.0000,-90.0000
-125.0000,85.0000,-167.0000,15.0000,-131.0000,16.0000,-131.0000,16.0000,-204.0000,89.0000,-167.0000,126.0000,-167.0000,89.0000,-20.0000,-241.0000,-195.0000,50.0000,-55.0000
-55.0000,121.0000,-131.0000,85.0000,-131.0000,52.0000,-278.0000,-20.0000,-94.0000,-57.0000,-57.0000,126.0000,-94.0000,89.0000,-20.0000,-57.0000,50.0000,15.0000,-160.0000
-125.0000,15.0000,-167.0000,50.0000,-94.0000,-20.0000,-241.0000,-20.0000,-278.0000,52.0000,-204.0000,52.0000,-94.0000,52.0000,-94.0000,16.0000,-301.0000,15.0000,-195.0000
-125.0000,156.0000,-94.0000,-19.0000,-57.0000,52.0000,-167.0000,-20.0000,-278.0000,126.0000,-131.0000,236.0000,16.0000,200.0000,-94.0000,-204.0000,-90.0000,15.0000,-90.0000
-90.0000,15.0000,-204.0000,121.0000,-167.0000,16.0000,-351.0000,-57.0000,-241.0000,16.0000,-241.0000,163.0000,-57.0000,89.0000,-204.0000,16.0000,-90.0000,-125.0000,-195.0000
-195.0000,15.0000,-204.0000,50.0000,-204.0000,52.0000,-131.0000,52.0000,-278.0000,236.0000,-388.0000,236.0000,-20.0000,163.0000,-131.0000,-167.0000,-301.0000,50.0000,50.0000
-195.0000,85.0000,-167.0000,156.0000,-204.0000,163.0000,-94.0000,126.0000,16.0000,200.0000,-315.0000,273.0000,-20.0000,163.0000,-94.0000,-94.0000,15.0000,85.0000,85.0000
-195.0000,-19.0000,-167.0000,226.0000,-278.0000,89.0000,-57.0000,236.0000,-94.0000,200.0000,-462.0000,163.0000,-94.0000,52.0000,-167.0000,52.0000,-231.0000,156.0000,15.0000
-266.0000,121.0000,-20.0000,156.0000,-167.0000,200.0000,89.0000,310.0000,-94.0000,236.0000,-388.0000,310.0000,-20.0000,236.0000,-20.0000,-167.0000,-160.0000,261.0000,191.0000
-195.0000,50.0000,-57.0000,261.0000,-204.0000,163.0000,16.0000,310.0000,16.0000,52.0000,-315.0000,163.0000,16.0000,163.0000,-20.0000,89.0000,-55.0000,156.0000,85.0000
-231.0000,-19.0000,-20.0000,191.0000,-94.0000,200.0000,200.0000,310.0000,-131.0000,200.0000,-351.0000,126.0000,89.0000,200.0000,-20.0000,16.0000,-336.0000,297.0000,121.0000
-125.0000,50.0000,52.0000,226.0000,-57.0000,310.0000,89.0000,236.0000,52.0000,16.0000,-94.0000,273.0000,163.0000,236.0000,16.0000,16.0000,50.0000,332.0000,121.0000
-19.0000,-19.0000,16.0000,297.0000,-57.0000,236.0000,16.0000,163.0000,-20.0000,-94.0000,-94.0000,89.0000,126.0000,52.0000,-57.0000,236.0000,-90.0000,261.0000,-90.0000
15.0000,121.0000,126.0000,226.0000,89.0000,273.0000,126.0000,126.0000,16.0000,16.0000,16.0000,236.0000,200.0000,163.0000,52.0000,-20.0000,-19.0000,332.0000,50.0000
121.0000,85.0000,163.0000,297.0000,52.0000,200.0000,-20.0000,52.0000,236.0000,-20.0000,89.0000,200.0000,200.0000,89.0000,89.0000,200.0000,261.0000,191.0000,-19.0000
50.0000,50.0000,163.0000,191.0000,89.0000,89.0000,89.0000,16.0000,163.0000,273.0000,-20.0000,163.0000,126.0000,-20.0000,89.0000,163.0000,-55.0000,191.0000,85.0000
50.0000,121.0000,200.0000,121.0000,126.0000,89.0000,200.0000,16.0000,457.0000,420.0000,126.0000,273.0000,200.0000,52.0000,273.0000,52.0000,191.0000,191.0000,261.0000
50.0000,-19.0000,126.0000,121.0000,126.0000,-20.0000,200.0000,52.0000,531.0000,457.0000,52.0000,89.0000,163.0000,-94.0000,236.0000,310.0000,-19.0000,50.0000,156.0000
-19.0000,15.0000,200.0000,-19.0000,236.0000,16.0000,420.0000,126.0000,494.0000,531.0000,89.0000,163.0000,273.0000,89.0000,347.0000,89.0000,-125.0000,121.0000,367.0000
121.0000,-19.0000,200.0000,50.0000,236.0000,89.0000,273.0000,163.0000,568.0000,310.0000,273.0000,89.0000,310.0000,52.0000,347.0000,200.0000,191.0000,50.0000,402.0000
121.0000,-90.0000,236.0000,-19.0000,236.0000,52.0000,384.0000,200.0000,347.0000,420.0000,200.0000,-20.0000,273.0000,-20.0000,273.0000,236.0000,-55.0000,121.0000,437.0000
191.0000,50.0000,347.0000,-19.0000,347.0000,126.0000,494.0000,200.0000,420.0000,384.0000,420.0000,163.0000,310.0000,163.0000,347.0000,52.0000,261.0000,156.0000,543.0000
332.0000,-19.0000,384.0000,121.0000,310.0000,89.0000,273.0000,200.0000,347.0000,200.0000,420.0000,52.0000,236.0000,52.0000,236.0000,236.0000,332.0000,15.0000,297.0000
297.0000,85.0000,420.0000,50.0000,420.0000,52.0000,384.0000,200.0000,236.0000,310.0000,420.0000,126.0000,273.0000,89.0000,273.0000,16.0000,226.0000,85.0000,367.0000
402.0000,156.0000,420.0000,156.0000,384.0000,52.0000,310.0000,163.0000,420.0000,163.0000,568.0000,163.0000,273.0000,126.0000,347.0000,89.0000,543.0000,-19.0000,297.0000
367.0000,50.0000,310.0000,121.0000,384.0000,-20.0000,347.0000,163.0000,273.0000,200.0000,420.0000,16.0000,273.0000,52.0000,310.0000,200.0000,226.0000,-55.0000,226.0000
332.0000,156.0000,310.0000,50.0000,420.0000,126.0000,420.0000,126.0000,310.0000,236.0000,494.0000,163.0000,310.0000,200.0000,384.0000,52.0000,367.0000,-55.0000,332.0000
402.0000,50.0000,236.0000,121.0000,310.0000,89.0000,273.0000,52.0000,310.0000,89.0000,494.0000,52.0000,236.0000,89.0000,347.0000,310.0000,402.0000,-160.0000,156.0000
332.0000,15.0000,200.0000,50.0000,347.0000,89.0000,384.0000,52.0000,163.0000,163.0000,384.0000,52.0000,273.0000,126.0000,347.0000,163.0000,156.0000,15.0000,226.0000
332.0000,50.0000,236.0000,85.0000,347.0000,163.0000,273.0000,16.0000,273.0000,-57.0000,457.0000,52.0000,310.0000,163.0000,347.0000,200.0000,437.0000,50.0000,156.0000
297.0000,-90.0000,200.0000,85.0000,310.0000,52.0000,200.0000,16.0000,126.0000,-57.0000,273.0000,-94.0000,310.0000,16.0000,310.0000,310.0000,156.0000,50.0000,50.0000
191.0000,50.0000,273.0000,-19.0000,420.0000,126.0000,347.0000,16.0000,236.0000,16.0000,310.0000,52.0000,420.0000,126.0000,420.0000,89.0000,191.0000,121.0000,191.0000
226.0000,-55.0000,163.0000,85.0000,310.0000,52.0000,200.0000,16.0000,347.0000,-131.0000,310.0000,-20.0000,384.0000,16.0000,384.0000,310.0000,261.0000,15.0000,85.0000
85.0000,-90.0000,163.0000,-19.0000,347.0000,16.0000,310.0000,52.0000,200.0000,16.0000,236.0000,-20.0000,384.0000,16.0000,384.0000,163.0000,-90.0000,85.0000,156.0000
121.0000,50.0000,200.0000,-19.0000,384.0000,52.0000,310.0000,52.0000,310.0000,-20.0000,384.0000,126.0000,384.0000,126.0000,384.0000,163.0000,226.0000,50.0000,226.0000
226.0000,-19.0000,200.0000,50.0000,310.0000,-20.0000,163.0000,52.0000,163.0000,-94.0000,273.0000,16.0000,310.0000,16.0000,236.0000,310.0000,121.0000,15.0000,85.0000
226.0000,156.0000,310.0000,-19.0000,384.0000,52.0000,236.0000,52.0000,89.0000,52.0000,310.0000,200.0000,347.0000,163.0000,236.0000,16.0000,156.0000,121.0000,226.0000
367.0000,156.0000,310.0000,85.0000,347.0000,52.0000,52.0000,52.0000,163.0000,-94.0000,384.0000,163.0000,273.0000,89.0000,163.0000,200.0000,402.0000,50.0000,85.0000
297.0000,121.0000,310.0000,85.0000,347.0000,89.0000,126.0000,89.0000,-57.0000,-57.0000,273.0000,163.0000,273.0000,126.0000,126.0000,52.0000,85.0000,121.0000,50.0000
332.0000,297.0000,384.0000,156.0000,384.0000,200.0000,126.0000,16.0000,52.0000,-131.0000,457.0000,384.0000,273.0000,273.0000,163.0000,-57.0000,437.0000,121.0000,50.0000
367.0000,226.0000,310.0000,297.0000,273.0000,89.0000,16.0000,-57.0000,52.0000,-94.0000,347.0000,273.0000,200.0000,89.0000,89.0000,126.0000,297.0000,15.0000,-90.0000
297.0000,332.0000,310.0000,156.0000,347.0000,52.0000,200.0000,16.0000,52.0000,163.0000,347.0000,384.0000,273.0000,236.0000,163.0000,-131.0000,156.0000,121.0000,85.0000
332.0000,367.0000,273.0000,226.0000,310.0000,52.0000,89.0000,-20.0000,126.0000,-20.0000,384.0000,384.0000,273.0000,200.0000,89.0000,16.0000,473.0000,50.0000,-19.0000
297.0000,332.0000,236.0000,226.0000,310.0000,52.0000,89.0000,-20.0000,-94.0000,89.0000,236.0000,347.0000,236.0000,163.0000,16.0000,-57.0000,191.0000,156.0000,-90.0000
261.0000,508.0000,310.0000,226.0000,310.0000,200.0000,126.0000,-20.0000,16.0000,126.0000,310.0000,531.0000,273.0000,310.0000,89.0000,-204.0000,437.0000,261.0000,-19.0000
297.0000,332.0000,236.0000,332.0000,200.0000,200.0000,16.0000,-57.0000,89.0000,-20.0000,236.0000,347.0000,200.0000,200.0000,52.0000,52.0000,367.0000,226.0000,-160.0000
226.0000,367.0000,236.0000,226.0000,236.0000,236.0000,200.0000,16.0000,16.0000,163.0000,200.0000,457.0000,236.0000,310.0000,89.0000,-167.0000,156.0000,367.0000,15.0000
261.0000,437.0000,200.0000,332.0000,163.0000,273.0000,126.0000,52.0000,200.0000,126.0000,273.0000,457.0000,236.0000,310.0000,89.0000,-20.0000,437.0000,297.0000,50.0000
191.0000,261.0000,163.0000,297.0000,126.0000,200.0000,126.0000,163.0000,52.0000,273.0000,89.0000,273.0000,163.0000,200.0000,52.0000,89.0000,50.0000,332.0000,121.0000
156.0000,367.0000,273.0000,261.0000,236.0000,310.0000,273.0000,273.0000,163.0000,347.0000,200.0000,420.0000,236.0000,347.0000,126.0000,-94.0000,191.0000,473.0000,297.0000
226.0000,297.0000,273.0000,402.0000,200.0000,273.0000,126.0000,273.0000,200.0000,163.0000,163.0000,310.0000,163.0000,236.0000,52.0000,200.0000,297.0000,437.0000,156.0000
156.0000,332.0000,347.0000,332.0000,236.0000,310.0000,273.0000,310.0000,16.0000,236.0000,89.0000,347.0000,163.0000,310.0000,89.0000,89.0000,50.0000,543.0000,226.0000
226.0000,367.0000,384.0000,367.0000,236.0000,347.0000,163.0000,236.0000,163.0000,89.0000,273.0000,420.0000,163.0000,347.0000,126.0000,200.0000,402.0000,437.0000,191.0000
297.0000,191.0000,273.0000,367.0000,163.0000,236.0000,126.0000,236.0000,52.0000,89.0000,200.0000,236.0000,52.0000,200.0000,52.0000,347.0000,156.0000,332.0000,85.0000
297.0000,297.0000,347.0000,261.0000,236.0000,273.0000,236.0000,236.0000,89.0000,236.0000,273.0000,384.0000,89.0000,310.0000,163.0000,163.0000,261.0000,261.0000,191.0000
367.0000,297.0000,310.0000,367.0000,163.0000,200.0000,52.0000,126.0000,126.0000,126.0000,273.0000,310.0000,89.0000,236.0000,89.0000,457.0000,473.0000,85.0000,-19.0000
297.0000,367.0000,310.0000,297.0000,200.0000,163.0000,126.0000,126.0000,16.0000,200.0000,163.0000,310.0000,52.0000,236.0000,89.0000,384.0000,156.0000,121.0000,-55.0000
297.0000,473.0000,347.0000,332.0000,200.0000,236.0000,52.0000,52.0000,163.0000,52.0000,310.0000,457.0000,126.0000,347.0000,200.0000,384.0000,473.0000,156.0000,-90.0000
332.0000,367.0000,273.0000,437.0000,126.0000,163.0000,-57.0000,-57.0000,52.0000,-131.0000,200.0000,310.0000,89.0000,200.0000,126.0000,604.0000,261.0000,121.0000,-266.0000
261.0000,473.0000,310.0000,367.0000,236.0000,236.0000,52.0000,-94.0000,-20.0000,-20.0000,236.0000,384.0000,126.0000,310.0000,200.0000,310.0000,226.0000,226.0000,-125.0000
297.0000,402.0000,236.0000,437.0000,163.0000,236.0000,-57.0000,-94.0000,89.0000,-167.0000,236.0000,273.0000,89.0000,236.0000,163.0000,494.0000,402.0000,156.0000,-125.0000
191.0000,226.0000,163.0000,332.0000,126.0000,236.0000,16.0000,16.0000,-131.0000,-20.0000,52.0000,126.0000,89.0000,163.0000,126.0000,420.0000,50.0000,226.0000,-55.0000
191.0000,297.0000,163.0000,297.0000,126.0000,347.0000,16.0000,89.0000,-57.0000,52.0000,163.0000,236.0000,126.0000,310.0000,200.0000,347.0000,332.0000,297.0000,85.0000
191.0000,156.0000,52.0000,332.0000,-20.0000,273.0000,-94.0000,126.0000,-57.0000,16.0000,52.0000,52.0000,16.0000,126.0000,89.0000,531.0000,156.0000,226.0000,50.0000
50.0000,156.0000,16.0000,156.0000,52.0000,236.0000,163.0000,273.0000,-94.0000,236.0000,16.0000,126.0000,16.0000,200.0000,163.0000,273.0000,-55.0000,367.0000,261.0000
50.0000,121.0000,52.0000,156.0000,52.0000,236.0000,89.0000,310.0000,89.0000,126.0000,89.0000,89.0000,52.0000,89.0000,126.0000,384.0000,156.0000,297.0000,191.0000
15.0000,-19.0000,89.0000,85.0000,52.0000,126.0000,126.0000,347.0000,-20.0000,163.0000,-57.0000,-20.0000,52.0000,-20.0000,126.0000,384.0000,-160.0000,332.0000,85.0000
15.0000,156.0000,126.0000,50.0000,126.0000,163.0000,200.0000,347.0000,52.0000,89.0000,89.0000,126.0000,126.0000,126.0000,200.0000,163.0000,85.0000,332.0000,191.0000
121.0000,85.0000,52.0000,156.0000,16.0000,89.0000,52.0000,273.0000,52.0000,-94.0000,126.0000,89.0000,89.0000,52.0000,89.0000,347.0000,121.0000,156.0000,15.0000
50.0000,191.0000,89.0000,85.0000,126.0000,89.0000,200.0000,236.0000,-57.0000,-20.0000,126.0000,163.0000,89.0000,126.0000,89.0000,16.0000,-55.0000,191.0000,50.0000
156.0000,261.0000,163.0000,156.0000,52.0000,126.0000,16.0000,89.0000,126.0000,-204.0000,310.0000,236.0000,126.0000,126.0000,126.0000,52.0000,297.0000,15.0000,-55.0000
156.0000,191.0000,126.0000,191.0000,52.0000,16.0000,-20.0000,52.0000,-20.0000,-94.0000,200.0000,126.0000,89.0000,52.0000,89.0000,89.0000,85.0000,-55.0000,-160.0000
191.0000,332.0000,163.0000,121.0000,163.0000,16.0000,89.0000,16.0000,-57.0000,-20.0000,273.0000,273.0000,163.0000,163.0000,163.0000,-167.0000,261.0000,15.0000,-19.0000
261.0000,226.0000,126.0000,226.0000,89.0000,-20.0000,-94.0000,-57.0000,-20.0000,-167.0000,273.0000,163.0000,163.0000,89.0000,89.0000,52.0000,367.0000,-125.0000,-195.0000
191.0000,226.0000,126.0000,121.0000,236.0000,-20.0000,-20.0000,-94.0000,-131.0000,-94.0000,236.0000,236.0000,200.0000,200.0000,89.0000,-131.0000,50.0000,-55.0000,-160.0000
261.0000,297.0000,200.0000,50.0000,236.0000,89.0000,-94.0000,-167.0000,52.0000,-204.0000,384.0000,347.0000,236.0000,310.0000,163.0000,-131.0000,402.0000,-90.0000,-160.0000
226.0000,85.0000,89.0000,50.0000,163.0000,52.0000,-131.0000,-131.0000,16.0000,-131.0000,236.0000,126.0000,126.0000,126.0000,126.0000,52.0000,156.0000,-90.0000,-160.0000
156.0000,121.0000,126.0000,-19.0000,163.0000,163.0000,52.0000,-20.0000,126.0000,52.0000,236.0000,200.0000,126.0000,200.0000,236.0000,-167.0000,156.0000,50.0000,121.0000
156.0000,85.0000,16.0000,50.0000,16.0000,163.0000,-20.0000,16.0000,273.0000,16.0000,163.0000,126.0000,16.0000,126.0000,236.0000,52.0000,261.0000,15.0000,156.0000
-19.0000,15.0000,-20.0000,-19.0000,52.0000,163.0000,163.0000,126.0000,163.0000,236.0000,16.0000,89.0000,16.0000,126.0000,236.0000,-57.0000,-125.0000,121.0000,297.0000
-55.0000,121.0000,16.0000,-19.0000,89.0000,236.0000,163.0000,236.0000,310.0000,236.0000,200.0000,163.0000,52.0000,163.0000,310.0000,-94.0000,156.0000,156.0000,367.0000
-19.0000,-19.0000,-20.0000,85.0000,16.0000,163.0000,52.0000,273.0000,200.0000,200.0000,89.0000,-20.0000,16.0000,16.0000,163.0000,89.0000,-19.0000,156.0000,226.0000
-19.0000,121.0000,89.0000,50.0000,126.0000,200.0000,200.0000,273.0000,126.0000,347.0000,126.0000,126.0000,52.0000,126.0000,200.0000,-131.0000,-55.0000,297.0000,367.0000
50.0000,121.0000,89.0000,156.0000,52.0000,200.0000,89.0000,163.0000,310.0000,236.0000,163.0000,89.0000,52.0000,89.0000,200.0000,52.0000,191.0000,191.0000,226.0000
15.0000,15.0000,52.0000,85.0000,89.0000,89.0000,200.0000,163.0000,200.0000,384.0000,52.0000,-20.0000,89.0000,16.0000,200.0000,52.0000,-195.0000,261.0000,226.0000
50.0000,121.0000,126.0000,50.0000,126.0000,163.0000,273.0000,163.0000,310.0000,310.0000,200.0000,89.0000,200.0000,163.0000,310.0000,-57.0000,50.0000,297.0000,297.0000
156.0000,50.0000,89.0000,156.0000,52.0000,126.0000,163.0000,163.0000,200.0000,163.0000,163.0000,-20.0000,200.0000,52.0000,273.0000,163.0000,15.0000,261.0000,121.0000
85.0000,226.0000,200.0000,156.0000,200.0000,163.0000,273.0000,200.0000,89.0000,310.0000,163.0000,126.0000,273.0000,200.0000,310.0000,-94.0000,15.0000,367.0000,226.0000
191.0000,297.0000,236.0000,297.0000,200.0000,273.0000,126.0000,163.0000,236.0000,163.0000,236.0000,200.0000,273.0000,236.0000,310.0000,52.0000,367.0000,297.0000,156.0000
121.0000,156.0000,200.0000,297.0000,200.0000,273.0000,163.0000,200.0000,126.0000,236.0000,89.0000,89.0000,236.0000,236.0000,236.0000,89.0000,15.0000,332.0000,121.0000
156.0000,226.0000,273.0000,261.0000,273.0000,384.0000,236.0000,236.0000,236.0000,236.0000,273.0000,236.0000,273.0000,384.0000,347.0000,-57.0000,226.0000,367.0000,226.0000
226.0000,156.0000,236.0000,332.0000,163.0000,310.0000,52.0000,236.0000,236.0000,126.0000,236.0000,126.0000,163.0000,273.0000,236.0000,200.0000,261.0000,156.0000,85.0000
156.0000,156.0000,236.0000,156.0000,200.0000,273.0000,236.0000,236.0000,163.0000,273.0000,163.0000,163.0000,126.0000,273.0000,273.0000,16.0000,50.0000,226.0000,261.0000
191.0000,121.0000,200.0000,121.0000,89.0000,273.0000,200.0000,200.0000,384.0000,163.0000,273.0000,126.0000,126.0000,273.0000,310.0000,126.0000,367.0000,156.0000,332.0000
156.0000,-55.0000,126.0000,85.0000,52.0000,200.0000,236.0000,236.0000,273.0000,273.0000,126.0000,-57.0000,16.0000,126.0000,273.0000,273.0000,50.0000,156.0000,332.0000
156.0000,156.0000,163.0000,15.0000,126.0000,236.0000,384.0000,273.0000,310.0000,347.0000,236.0000,89.0000,16.0000,200.0000,347.0000,89.0000,156.0000,191.0000,473.0000
261.0000,121.0000,126.0000,156.0000,16.0000,163.0000,236.0000,236.0000,384.0000,163.0000,273.0000,16.0000,-20.0000,89.0000,273.0000,384.0000,332.0000,85.0000,297.0000
226.0000,121.0000,126.0000,85.0000,89.0000,89.0000,347.0000,236.0000,236.0000,236.0000,200.0000,16.0000,-20.0000,89.0000,273.0000,200.0000,15.0000,191.0000,367.0000
261.0000,226.0000,200.0000,121.0000,126.0000,163.0000,310.0000,236.0000,384.0000,163.0000,347.0000,89.0000,89.0000,126.0000,273.0000,200.0000,367.0000,156.0000,367.0000
226.0000,85.0000,126.0000,156.0000,126.0000,52.0000,236.0000,200.0000,273.0000,200.0000,200.0000,-94.0000,89.0000,-94.0000,163.0000,347.0000,156.0000,15.0000,191.0000
191.0000,226.0000,163.0000,50.0000,200.0000,16.0000,384.0000,163.0000,273.0000,347.0000,236.0000,89.0000,200.0000,52.0000,273.0000,89.0000,191.0000,50.0000,297.0000
261.0000,156.0000,126.0000,85.0000,89.0000,-20.0000,236.0000,89.0000,384.0000,163.0000,236.0000,16.0000,200.0000,-20.0000,273.0000,310.0000,332.0000,-90.0000,191.0000
191.0000,50.0000,52.0000,-19.0000,89.0000,-57.0000,347.0000,89.0000,200.0000,273.0000,89.0000,-57.0000,236.0000,-20.0000,273.0000,200.0000,-55.0000,-19.0000,261.0000
121.0000,121.0000,89.0000,-19.0000,89.0000,52.0000,347.0000,89.0000,310.0000,236.0000,163.0000,52.0000,310.0000,126.0000,310.0000,163.0000,191.0000,-19.0000,332.0000
85.0000,15.0000,-20.0000,50.0000,52.0000,-20.0000,236.0000,89.0000,273.0000,163.0000,89.0000,-20.0000,236.0000,52.0000,236.0000,384.0000,50.0000,-55.0000,156.0000
15.0000,156.0000,52.0000,-90.0000,126.0000,52.0000,347.0000,126.0000,236.0000,236.0000,126.0000,163.0000,273.0000,200.0000,236.0000,89.0000,15.0000,85.0000,297.0000
121.0000,156.0000,52.0000,50.0000,52.0000,89.0000,163.0000,89.0000,310.0000,126.0000,163.0000,89.0000,236.0000,126.0000,163.0000,236.0000,297.0000,15.0000,226.0000
85.0000,15.0000,52.0000,15.0000,52.0000,89.0000,200.0000,126.0000,200.0000,420.0000,-20.0000,-94.0000,163.0000,16.0000,163.0000,200.0000,-19.0000,15.0000,261.0000
15.0000,85.0000,89.0000,-55.0000,52.0000,126.0000,273.0000,126.0000,420.0000,568.0000,52.0000,16.0000,200.0000,163.0000,236.0000,89.0000,156.0000,-19.0000,402.0000
50.0000,-125.0000,-20.0000,-19.0000,-20.0000,89.0000,163.0000,126.0000,494.0000,457.0000,-20.0000,-167.0000,126.0000,16.0000,163.0000,347.0000,50.0000,-160.0000,297.0000
-55.0000,-90.0000,-20.0000,-125.0000,16.0000,89.0000,347.0000,200.0000,384.0000,531.0000,-20.0000,-57.0000,163.0000,163.0000,200.0000,89.0000,-125.0000,-55.0000,473.0000
15.0000,15.0000,16.0000,15.0000,16.0000,126.0000,273.0000,200.0000,457.0000,310.0000,89.0000,52.0000,163.0000,163.0000,200.0000,200.0000,156.0000,-90.0000,367.0000
15.0000,-19.0000,16.0000,50.0000,16.0000,52.0000,347.0000,236.0000,236.0000,273.0000,-20.0000,-20.0000,126.0000,52.0000,163.0000,200.0000,-125.0000,-19.0000,297.0000
50.0000,156.0000,89.0000,50.0000,89.0000,89.0000,420.0000,236.0000,200.0000,236.0000,89.0000,126.0000,236.0000,126.0000,200.0000,-20.0000,50.0000,85.0000,402.0000
85.0000,50.0000,52.0000,156.0000,52.0000,16.0000,236.0000,236.0000,200.0000,126.0000,126.0000,-20.0000,236.0000,-20.0000,89.0000,236.0000,121.0000,50.0000,226.0000
15.0000,85.0000,89.0000,50.0000,163.0000,16.0000,347.0000,236.0000,89.0000,273.0000,126.0000,-20.0000,236.0000,16.0000,89.0000,89.0000,-90.0000,191.0000,261.0000
121.0000,121.0000,200.0000,121.0000,163.0000,16.0000,200.0000,126.0000,200.0000,126.0000,273.0000,52.0000,236.0000,52.0000,52.0000,163.0000,261.0000,121.0000,156.0000
191.0000,50.0000,163.0000,156.0000,126.0000,-57.0000,89.0000,52.0000,52.0000,52.0000,200.0000,-57.0000,126.0000,-57.0000,-20.0000,273.0000,15.0000,121.0000,15.0000
156.0000,191.0000,273.0000,50.0000,236.0000,16.0000,163.0000,52.0000,52.0000,89.0000,273.0000,89.0000,200.0000,89.0000,52.0000,16.0000,121.0000,261.0000,121.0000
226.0000,85.0000,200.0000,156.0000,163.0000,16.0000,16.0000,52.0000,126.0000,-20.0000,236.0000,16.0000,163.0000,16.0000,-20.0000,310.0000,226.0000,191.0000,50.0000
156.0000,50.0000,200.0000,85.0000,200.0000,16.0000,163.0000,126.0000,-20.0000,163.0000,126.0000,89.0000,126.0000,52.0000,-20.0000,163.0000,-90.0000,226.0000,156.0000
191.0000,156.0000,236.0000,85.0000,200.0000,126.0000,163.0000,163.0000,126.0000,89.0000,236.0000,236.0000,126.0000,200.0000,16.0000,200.0000,297.0000,226.0000,226.0000
156.0000,50.0000,200.0000,156.0000,126.0000,126.0000,89.0000,200.0000,89.0000,16.0000,89.0000,89.0000,52.0000,126.0000,-20.0000,384.0000,85.0000,156.0000,85.0000
50.0000,121.0000,200.0000,50.0000,163.0000,200.0000,236.0000,236.0000,126.0000,163.0000,89.0000,200.0000,126.0000,236.0000,89.0000,126.0000,15.0000,261.0000,261.0000
85.0000,50.0000,126.0000,121.0000,89.0000,200.0000,126.0000,200.0000,273.0000,16.0000,126.0000,89.0000,126.0000,163.0000,89.0000,347.0000,156.0000,156.0000,121.0000
15.0000,-19.0000,126.0000,85.0000,163.0000,163.0000,200.0000,163.0000,52.0000,89.0000,52.0000,52.0000,200.0000,163.0000,52.0000,236.0000,-125.0000,261.0000,85.0000
85.0000,191.0000,236.0000,121.0000,236.0000,273.0000,200.0000,89.0000,126.0000,89.0000,200.0000,236.0000,273.0000,236.0000,89.0000,126.0000,191.0000,226.0000,85.0000
156.0000,191.0000,163.0000,191.0000,200.0000,126.0000,126.0000,52.0000,126.0000,126.0000,89.0000,163.0000,236.0000,126.0000,16.0000,310.0000,85.0000,85.0000,-19.0000
50.0000,261.0000,163.0000,50.0000,273.0000,126.0000,310.0000,126.0000,89.0000,310.0000,126.0000,236.0000,273.0000,273.0000,89.0000,52.0000,-19.0000,156.0000,156.0000
156.0000,191.0000,163.0000,156.0000,200.0000,126.0000,126.0000,89.0000,200.0000,126.0000,273.0000,200.0000,273.0000,200.0000,52.0000,200.0000,261.0000,121.0000,15.0000
156.0000,156.0000,163.0000,156.0000,236.0000,89.0000,89.0000,52.0000,16.0000,163.0000,163.0000,126.0000,236.0000,126.0000,16.0000,163.0000,-19.0000,226.0000,-19.0000
191.0000,332.0000,310.0000,191.0000,310.0000,200.0000,126.0000,52.0000,89.0000,89.0000,310.0000,310.0000,273.0000,273.0000,16.0000,-57.0000,261.0000,261.0000,85.0000
297.0000,226.0000,273.0000,332.0000,236.0000,163.0000,-20.0000,52.0000,52.0000,-94.0000,273.0000,200.0000,200.0000,126.0000,-57.0000,163.0000,261.0000,226.0000,-90.0000
226.0000,226.0000,347.0000,226.0000,310.0000,236.0000,126.0000,89.0000,-20.0000,52.0000,200.0000,236.0000,200.0000,236.0000,52.0000,-94.0000,85.0000,297.0000,85.0000
297.0000,226.0000,347.0000,297.0000,236.0000,310.0000,52.0000,52.0000,163.0000,-20.0000,273.0000,236.0000,163.0000,236.0000,89.0000,16.0000,437.0000,226.0000,85.0000
297.0000,85.0000,273.0000,297.0000,163.0000,273.0000,16.0000,52.0000,52.0000,89.0000,163.0000,89.0000,89.0000,163.0000,16.0000,89.0000,156.0000,297.0000,50.0000
261.0000,261.0000,347.0000,226.0000,236.0000,310.0000,126.0000,52.0000,89.0000,126.0000,273.0000,236.0000,126.0000,347.0000,126.0000,-131.0000,261.0000,332.0000,50.0000
297.0000,156.0000,200.0000,261.0000,126.0000,236.0000,16.0000,89.0000,236.0000,16.0000,200.0000,163.0000,89.0000,236.0000,200.0000,126.0000,332.0000,121.0000,-19.0000
121.0000,156.0000,52.0000,85.0000,89.0000,200.0000,236.0000,163.0000,236.0000,273.0000,-20.0000,200.0000,52.0000,273.0000,310.0000,-20.0000,50.0000,85.0000,332.0000
85.0000,156.0000,-57.0000,50.0000,-20.0000,200.0000,236.0000,200.0000,420.0000,273.0000,52.0000,273.0000,89.0000,273.0000,310.0000,52.0000,332.0000,15.0000,508.0000
50.0000,-19.0000,-131.0000,50.0000,-20.0000,126.0000,200.0000,273.0000,236.0000,347.0000,52.0000,16.0000,89.0000,89.0000,163.0000,236.0000,-90.0000,121.0000,437.0000
15.0000,-55.0000,126.0000,-55.0000,236.0000,236.0000,347.0000,384.0000,89.0000,310.0000,310.0000,-20.0000,236.0000,126.0000,200.0000,16.0000,-160.0000,402.0000,261.0000
156.0000,-160.0000,273.0000,85.0000,310.0000,310.0000,163.0000,236.0000,89.0000,-20.0000,273.0000,-131.0000,384.0000,89.0000,236.0000,347.0000,85.0000,402.0000,-266.0000
50.0000,-19.0000,89.0000,156.0000,163.0000,310.0000,384.0000,126.0000,163.0000,89.0000,-315.0000,126.0000,347.0000,236.0000,494.0000,236.0000,121.0000,226.0000,-19.0000
15.0000,402.0000,-462.0000,261.0000,-315.0000,347.0000,457.0000,52.0000,641.0000,163.0000,-609.0000,604.0000,126.0000,494.0000,604.0000,200.0000,754.0000,-195.0000,473.0000
-19.0000,473.0000,-756.0000,261.0000,-462.0000,200.0000,347.0000,126.0000,494.0000,200.0000,-609.0000,604.0000,16.0000,457.0000,273.0000,384.0000,437.0000,-266.0000,437.0000
-90.0000,578.0000,-278.0000,85.0000,16.0000,310.0000,273.0000,273.0000,89.0000,236.0000,-57.0000,715.0000,273.0000,531.0000,52.0000,126.0000,156.0000,85.0000,297.0000
85.0000,543.0000,126.0000,226.0000,347.0000,347.0000,-57.0000,273.0000,-94.0000,-57.0000,420.0000,531.0000,457.0000,310.0000,-131.0000,273.0000,226.0000,191.0000,-160.0000
226.0000,437.0000,200.0000,226.0000,531.0000,236.0000,-57.0000,236.0000,-388.0000,-20.0000,494.0000,347.0000,494.0000,163.0000,-167.0000,163.0000,-125.0000,261.0000,-301.0000
367.0000,402.0000,163.0000,226.0000,604.0000,273.0000,-20.0000,163.0000,-241.0000,-57.0000,641.0000,310.0000,531.0000,163.0000,-57.0000,16.0000,121.0000,332.0000,-195.0000
402.0000,15.0000,-20.0000,191.0000,384.0000,200.0000,-20.0000,126.0000,-167.0000,-94.0000,384.0000,-20.0000,384.0000,52.0000,-20.0000,273.0000,-19.0000,261.0000,-195.0000
191.0000,-55.0000,-167.0000,15.0000,273.0000,273.0000,310.0000,236.0000,-20.0000,163.0000,52.0000,89.0000,347.0000,273.0000,89.0000,89.0000,-90.0000,297.0000,156.0000
-19.0000,-55.0000,-388.0000,156.0000,-20.0000,310.0000,384.0000,236.0000,420.0000,16.0000,-315.0000,236.0000,200.0000,384.0000,200.0000,273.0000,297.0000,85.0000,226.0000
-336.0000,15.0000,-609.0000,261.0000,-278.0000,310.0000,604.0000,200.0000,604.0000,52.0000,-903.0000,384.0000,126.0000,494.0000,273.0000,273.0000,191.0000,15.0000,297.0000
-547.0000,367.0000,-646.0000,402.0000,-315.0000,420.0000,715.0000,89.0000,862.0000,-94.0000,-1051.0000,715.0000,163.0000,678.0000,457.0000,52.0000,613.0000,85.0000,332.0000
-512.0000,437.0000,-683.0000,649.0000,-425.0000,420.0000,494.0000,-57.0000,788.0000,-351.0000,-1198.0000,641.0000,200.0000,531.0000,420.0000,236.0000,754.0000,85.0000,15.0000
-512.0000,578.0000,-499.0000,613.0000,-278.0000,457.0000,531.0000,-131.0000,568.0000,-278.0000,-1235.0000,715.0000,273.0000,568.0000,531.0000,-20.0000,613.0000,261.0000,-19.0000
-266.0000,613.0000,-315.0000,649.0000,-241.0000,457.0000,310.0000,-167.0000,604.0000,-388.0000,-977.0000,641.0000,273.0000,494.0000,531.0000,89.0000,930.0000,191.0000,-125.0000
-125.0000,437.0000,-204.0000,578.0000,-241.0000,310.0000,163.0000,-94.0000,310.0000,-204.0000,-903.0000,420.0000,126.0000,310.0000,494.0000,200.0000,613.0000,121.0000,-160.0000
-19.0000,437.0000,-94.0000,332.0000,-204.0000,273.0000,200.0000,16.0000,273.0000,52.0000,-572.0000,457.0000,52.0000,384.0000,531.0000,16.0000,578.0000,85.0000,50.0000
85.0000,191.0000,-204.0000,226.0000,-351.0000,126.0000,-20.0000,89.0000,347.0000,126.0000,-388.0000,273.0000,-94.0000,200.0000,494.0000,347.0000,473.0000,-160.0000,50.0000
-19.0000,50.0000,-315.0000,-125.0000,-388.0000,16.0000,126.0000,236.0000,310.0000,494.0000,-315.0000,200.0000,-204.0000,200.0000,531.0000,273.0000,50.0000,-231.0000,261.0000
-19.0000,85.0000,-388.0000,-160.0000,-499.0000,16.0000,89.0000,273.0000,531.0000,494.0000,-131.0000,273.0000,-241.0000,236.0000,568.0000,420.0000,297.0000,-301.0000,332.0000
-55.0000,-55.0000,-462.0000,-90.0000,-572.0000,-20.0000,52.0000,273.0000,457.0000,494.0000,-204.0000,126.0000,-351.0000,89.0000,457.0000,604.0000,15.0000,-231.0000,261.0000
-125.0000,85.0000,-351.0000,-90.0000,-462.0000,126.0000,163.0000,273.0000,347.0000,568.0000,-57.0000,236.0000,-278.0000,200.0000,384.0000,384.0000,50.0000,15.0000,402.0000
15.0000,85.0000,-241.0000,121.0000,-425.0000,200.0000,-20.0000,273.0000,273.0000,310.0000,89.0000,126.0000,-241.0000,163.0000,126.0000,604.0000,156.0000,85.0000,261.0000
-55.0000,50.0000,-94.0000,50.0000,-241.0000,163.0000,16.0000,384.0000,16.0000,384.0000,89.0000,89.0000,-167.0000,200.0000,-20.0000,420.0000,-231.0000,191.0000,332.0000
15.0000,121.0000,126.0000,50.0000,-94.0000,236.0000,16.0000,420.0000,89.0000,347.0000,347.0000,200.0000,-131.0000,310.0000,-20.0000,347.0000,-19.0000,156.0000,297.0000
156.0000,50.0000,163.0000,85.0000,-57.0000,126.0000,-131.0000,384.0000,-94.0000,310.0000,384.0000,52.0000,-204.0000,200.0000,-94.0000,494.0000,-195.0000,85.0000,15.0000
261.0000,226.0000,310.0000,15.0000,89.0000,126.0000,-57.0000,384.0000,-241.0000,420.0000,568.0000,200.0000,-167.0000,310.0000,-57.0000,236.0000,-195.0000,261.0000,85.0000
437.0000,191.0000,384.0000,191.0000,126.0000,126.0000,-204.0000,310.0000,-241.0000,236.0000,715.0000,89.0000,-167.0000,163.0000,-167.0000,420.0000,85.0000,261.0000,-19.0000
402.0000,85.0000,494.0000,226.0000,236.0000,126.0000,-167.0000,347.0000,-425.0000,347.0000,604.0000,-20.0000,-131.0000,52.0000,-241.0000,310.0000,-231.0000,402.0000,-55.0000
437.0000,226.0000,641.0000,261.0000,347.0000,273.0000,-131.0000,310.0000,-315.0000,310.0000,788.0000,52.0000,16.0000,126.0000,-204.0000,163.0000,50.0000,437.0000,-19.0000
508.0000,85.0000,568.0000,332.0000,273.0000,200.0000,-278.0000,347.0000,-315.0000,273.0000,715.0000,-204.0000,-20.0000,-57.0000,-315.0000,347.0000,-55.0000,297.0000,-125.0000
437.0000,85.0000,641.0000,156.0000,347.0000,236.0000,-57.0000,457.0000,-388.0000,531.0000,752.0000,-167.0000,52.0000,16.0000,-278.0000,89.0000,-266.0000,367.0000,156.0000
473.0000,15.0000,604.0000,156.0000,310.0000,200.0000,-94.0000,531.0000,-204.0000,457.0000,788.0000,-167.0000,52.0000,-20.0000,-278.0000,236.0000,-90.0000,191.0000,226.0000
402.0000,-90.0000,604.0000,50.0000,347.0000,52.0000,-57.0000,568.0000,-351.0000,531.0000,641.0000,-167.0000,52.0000,-94.0000,-278.0000,273.0000,-407.0000,191.0000,191.0000
402.0000,85.0000,752.0000,-19.0000,457.0000,89.0000,-20.0000,531.0000,-315.0000,494.0000,788.0000,16.0000,126.0000,16.0000,-278.0000,52.0000,-125.0000,191.0000,261.0000
508.0000,-19.0000,752.0000,85.0000,420.0000,52.0000,-204.0000,420.0000,-315.0000,310.0000,788.0000,-204.0000,89.0000,-131.0000,-351.0000,273.0000,-125.0000,50.0000,50.0000
367.0000,-55.0000,788.0000,15.0000,531.0000,52.0000,-57.0000,384.0000,-351.0000,420.0000,788.0000,-241.0000,200.0000,-131.0000,-241.0000,16.0000,-407.0000,191.0000,85.0000
367.0000,-90.0000,715.0000,50.0000,604.0000,52.0000,-94.0000,310.0000,-94.0000,310.0000,899.0000,-241.0000,310.0000,-94.0000,-131.0000,126.0000,-125.0000,121.0000,50.0000
261.0000,-266.0000,568.0000,50.0000,641.0000,-20.0000,-57.0000,273.0000,-167.0000,310.0000,752.0000,-351.0000,310.0000,-167.0000,-131.0000,236.0000,-442.0000,121.0000,-19.0000
226.0000,-125.0000,568.0000,-55.0000,715.0000,52.0000,16.0000,273.0000,-167.0000,310.0000,825.0000,-131.0000,384.0000,16.0000,-94.0000,16.0000,-266.0000,191.0000,121.0000
332.0000,-125.0000,494.0000,85.0000,604.0000,16.0000,-131.0000,200.0000,-94.0000,126.0000,752.0000,-131.0000,347.0000,-57.0000,-94.0000,310.0000,-55.0000,85.0000,-19.0000
261.0000,-19.0000,494.0000,15.0000,604.0000,16.0000,16.0000,126.0000,-167.0000,236.0000,568.0000,-57.0000,347.0000,16.0000,-57.0000,89.0000,-231.0000,191.0000,15.0000
332.0000,156.0000,531.0000,85.0000,568.0000,52.0000,-20.0000,52.0000,16.0000,89.0000,641.0000,89.0000,310.0000,89.0000,52.0000,89.0000,226.0000,226.0000,50.0000
332.0000,50.0000,457.0000,156.0000,457.0000,-20.0000,-94.0000,52.0000,-57.0000,52.0000,457.0000,-94.0000,236.0000,-94.0000,16.0000,236.0000,50.0000,226.0000,15.0000
332.0000,191.0000,531.0000,121.0000,494.0000,52.0000,52.0000,89.0000,-20.0000,200.0000,457.0000,16.0000,273.0000,52.0000,16.0000,-20.0000,121.0000,332.0000,226.0000
402.0000,85.0000,494.0000,226.0000,347.0000,89.0000,-57.0000,126.0000,126.0000,52.0000,384.0000,-57.0000,200.0000,-20.0000,-57.0000,236.0000,332.0000,226.0000,191.0000
332.0000,-19.0000,457.0000,121.0000,310.0000,52.0000,89.0000,163.0000,16.0000,236.0000,236.0000,-94.0000,126.0000,-20.0000,-57.0000,126.0000,15.0000,261.0000,332.0000
332.0000,50.0000,457.0000,85.0000,310.0000,126.0000,89.0000,200.0000,126.0000,236.0000,384.0000,52.0000,163.0000,52.0000,-20.0000,89.0000,332.0000,226.0000,402.0000
367.0000,-19.0000,384.0000,156.0000,273.0000,16.0000,16.0000,236.0000,52.0000,163.0000,310.0000,-94.0000,89.0000,-94.0000,-57.0000,273.0000,156.0000,121.0000,191.0000
297.0000,121.0000,384.0000,50.0000,347.0000,52.0000,163.0000,273.0000,52.0000,310.0000,384.0000,16.0000,126.0000,-20.0000,89.0000,52.0000,50.0000,156.0000,297.0000
332.0000,50.0000,347.0000,121.0000,273.0000,16.0000,52.0000,163.0000,273.0000,126.0000,420.0000,-57.0000,89.0000,-94.0000,126.0000,200.0000,261.0000,15.0000,191.0000
261.0000,-55.0000,347.0000,85.0000,236.0000,-20.0000,126.0000,89.0000,163.0000,200.0000,310.0000,-131.0000,89.0000,-94.0000,126.0000,163.0000,-55.0000,121.0000,156.0000
261.0000,121.0000,457.0000,85.0000,310.0000,89.0000,200.0000,16.0000,273.0000,163.0000,420.0000,52.0000,126.0000,89.0000,200.0000,-20.0000,191.0000,121.0000,191.0000
261.0000,-19.0000,420.0000,156.0000,273.0000,-20.0000,126.0000,-20.0000,273.0000,52.0000,347.0000,-57.0000,163.0000,16.0000,126.0000,200.0000,85.0000,15.0000,50.0000
121.0000,15.0000,420.0000,15.0000,384.0000,16.0000,347.0000,16.0000,236.0000,163.0000,273.0000,16.0000,236.0000,89.0000,236.0000,-94.0000,-125.0000,50.0000,191.0000
156.0000,-19.0000,384.0000,85.0000,310.0000,52.0000,273.0000,-20.0000,420.0000,-20.0000,384.0000,52.0000,310.0000,89.0000,310.0000,16.0000,191.0000,-19.0000,85.0000
121.0000,-125.0000,310.0000,50.0000,310.0000,-20.0000,273.0000,-20.0000,273.0000,89.0000,236.0000,-20.0000,273.0000,-20.0000,310.0000,52.0000,-125.0000,-19.0000,15.0000
85.0000,85.0000,347.0000,50.0000,420.0000,89.0000,347.0000,-20.0000,347.0000,126.0000,347.0000,163.0000,347.0000,126.0000,347.0000,-131.0000,121.0000,121.0000,85.0000
156.0000,50.0000,310.0000,226.0000,347.0000,89.0000,163.0000,-94.0000,347.0000,-57.0000,310.0000,52.0000,310.0000,16.0000,236.0000,126.0000,191.0000,85.0000,-55.0000
121.0000,85.0000,384.0000,156.0000,420.0000,126.0000,273.0000,-131.0000,163.0000,52.0000,273.0000,89.0000,310.0000,89.0000,200.0000,-94.0000,50.0000,261.0000,85.0000
261.0000,121.0000,457.0000,261.0000,384.0000,200.0000,126.0000,-131.0000,273.0000,-57.0000,384.0000,126.0000,273.0000,126.0000,163.0000,-20.0000,437.0000,226.0000,85.0000
226.0000,15.0000,384.0000,261.0000,347.0000,163.0000,89.0000,-94.0000,126.0000,16.0000,273.0000,16.0000,200.0000,16.0000,89.0000,126.0000,191.0000,226.0000,50.0000
191.0000,156.0000,420.0000,191.0000,420.0000,236.0000,236.0000,-20.0000,200.0000,126.0000,347.0000,163.0000,236.0000,163.0000,163.0000,-94.0000,297.0000,297.0000,226.0000
226.0000,121.0000,347.0000,261.0000,347.0000,163.0000,89.0000,16.0000,273.0000,16.0000,347.0000,89.0000,236.0000,89.0000,126.0000,200.0000,367.0000,226.0000,85.0000
121.0000,121.0000,310.0000,156.0000,384.0000,163.0000,236.0000,89.0000,200.0000,236.0000,236.0000,52.0000,200.0000,163.0000,126.0000,52.0000,85.0000,297.0000,156.0000
156.0000,226.0000,310.0000,191.0000,347.0000,236.0000,200.0000,89.0000,347.0000,200.0000,347.0000,163.0000,236.0000,273.0000,200.0000,89.0000,437.0000,226.0000,156.0000
191.0000,121.0000,236.0000,226.0000,310.0000,163.0000,89.0000,52.0000,236.0000,200.0000,200.0000,89.0000,163.0000,163.0000,89.0000,273.0000,191.0000,121.0000,-19.0000
85.0000,297.0000,310.0000,156.0000,420.0000,236.0000,200.0000,52.0000,236.0000,273.0000,236.0000,310.0000,273.0000,310.0000,163.0000,52.0000,226.0000,191.0000,121.0000
121.0000,297.0000,310.0000,261.0000,384.0000,200.0000,52.0000,16.0000,347.0000,89.0000,200.0000,273.0000,310.0000,236.0000,163.0000,273.0000,437.0000,85.0000,-19.0000
50.0000,191.0000,273.0000,191.0000,384.0000,126.0000,163.0000,-20.0000,200.0000,236.0000,16.0000,200.0000,273.0000,163.0000,163.0000,163.0000,121.0000,121.0000,85.0000
85.0000,332.0000,347.0000,226.0000,347.0000,200.0000,200.0000,-20.0000,347.0000,236.0000,163.0000,347.0000,310.0000,273.0000,163.0000,52.0000,402.0000,121.0000,191.0000
191.0000,191.0000,310.0000,297.0000,273.0000,163.0000,52.0000,16.0000,236.0000,126.0000,89.0000,163.0000,273.0000,126.0000,16.0000,236.0000,261.0000,50.0000,50.0000
121.0000,261.0000,347.0000,191.0000,384.0000,200.0000,200.0000,89.0000,52.0000,200.0000,126.0000,273.0000,384.0000,273.0000,52.0000,16.0000,121.0000,261.0000,226.0000
191.0000,191.0000,310.0000,191.0000,384.0000,163.0000,126.0000,163.0000,163.0000,89.0000,273.0000,236.0000,420.0000,163.0000,16.0000,163.0000,332.0000,191.0000,156.0000
156.0000,85.0000,236.0000,85.0000,384.0000,89.0000,163.0000,273.0000,16.0000,236.0000,126.0000,126.0000,347.0000,52.0000,-20.0000,163.0000,50.0000,226.0000,191.0000
191.0000,332.0000,273.0000,-19.0000,347.0000,200.0000,236.0000,273.0000,200.0000,273.0000,200.0000,347.0000,310.0000,200.0000,89.0000,-20.0000,402.0000,226.0000,437.0000
226.0000,367.0000,163.0000,50.0000,163.0000,200.0000,163.0000,200.0000,273.0000,16.0000,16.0000,273.0000,200.0000,163.0000,89.0000,200.0000,402.0000,191.0000,402.0000
85.0000,367.0000,200.0000,-90.0000,200.0000,310.0000,384.0000,200.0000,200.0000,16.0000,-57.0000,310.0000,236.0000,273.0000,200.0000,-20.0000,121.0000,473.0000,437.0000
121.0000,85.0000,310.0000,-160.0000,310.0000,384.0000,273.0000,273.0000,273.0000,-131.0000,200.0000,52.0000,420.0000,163.0000,236.0000,126.0000,226.0000,649.0000,15.0000
191.0000,-266.0000,420.0000,-231.0000,457.0000,310.0000,163.0000,347.0000,16.0000,52.0000,236.0000,-351.0000,494.0000,-57.0000,236.0000,236.0000,-55.0000,719.0000,-266.0000
297.0000,-90.0000,200.0000,-160.0000,384.0000,384.0000,236.0000,347.0000,310.0000,200.0000,273.0000,-278.0000,347.0000,52.0000,457.0000,16.0000,332.0000,437.0000,156.0000
332.0000,-19.0000,-425.0000,50.0000,-131.0000,273.0000,236.0000,236.0000,715.0000,126.0000,-94.0000,-167.0000,52.0000,16.0000,531.0000,273.0000,578.0000,15.0000,473.0000
50.0000,156.0000,-572.0000,-55.0000,-167.0000,200.0000,494.0000,89.0000,604.0000,200.0000,-351.0000,236.0000,126.0000,200.0000,457.0000,16.0000,261.0000,121.0000,543.0000
50.0000,402.0000,-167.0000,-90.0000,126.0000,236.0000,236.0000,-57.0000,420.0000,-20.0000,89.0000,604.0000,384.0000,384.0000,273.0000,-20.0000,473.0000,156.0000,191.0000
191.0000,367.0000,163.0000,-160.0000,384.0000,126.0000,-94.0000,-131.0000,-20.0000,-57.0000,273.0000,494.0000,457.0000,236.0000,52.0000,52.0000,121.0000,191.0000,-90.0000
297.0000,437.0000,347.0000,-301.0000,568.0000,200.0000,-57.0000,-94.0000,-131.0000,16.0000,494.0000,494.0000,531.0000,384.0000,52.0000,-167.0000,191.0000,297.0000,121.0000
402.0000,261.0000,236.0000,-160.0000,457.0000,163.0000,-131.0000,52.0000,-57.0000,-94.0000,457.0000,200.0000,420.0000,163.0000,-20.0000,89.0000,261.0000,226.0000,85.0000
297.0000,-55.0000,89.0000,-266.0000,347.0000,200.0000,163.0000,236.0000,-131.0000,89.0000,163.0000,-94.0000,347.0000,-20.0000,16.0000,16.0000,-125.0000,367.0000,261.0000
226.0000,-301.0000,-57.0000,-195.0000,200.0000,347.0000,310.0000,384.0000,236.0000,126.0000,52.0000,-278.0000,310.0000,-57.0000,200.0000,16.0000,85.0000,473.0000,437.0000
-19.0000,-759.0000,-351.0000,-90.0000,-20.0000,384.0000,457.0000,531.0000,494.0000,236.0000,-425.0000,-756.0000,200.0000,-204.0000,420.0000,347.0000,-336.0000,543.0000,437.0000
-336.0000,-1005.0000,-499.0000,-160.0000,-94.0000,604.0000,825.0000,641.0000,825.0000,457.0000,-719.0000,-830.0000,310.0000,52.0000,788.0000,236.0000,-477.0000,825.0000,649.0000
-442.0000,-1251.0000,-609.0000,15.0000,-241.0000,752.0000,825.0000,641.0000,1156.0000,347.0000,-940.0000,-977.0000,384.0000,200.0000,936.0000,568.0000,-336.0000,965.0000,578.0000
-512.0000,-1392.0000,-535.0000,50.0000,-204.0000,899.0000,936.0000,678.0000,972.0000,384.0000,-1161.0000,-977.0000,457.0000,347.0000,899.0000,604.0000,-653.0000,1141.0000,508.0000
-442.0000,-1181.0000,-351.0000,85.0000,-131.0000,1120.0000,899.0000,604.0000,972.0000,273.0000,-977.0000,-683.0000,568.0000,641.0000,972.0000,568.0000,-266.0000,1212.0000,473.0000
-266.0000,-1216.0000,-278.0000,226.0000,-131.0000,1046.0000,604.0000,494.0000,788.0000,126.0000,-940.0000,-646.0000,494.0000,531.0000,936.0000,825.0000,-301.0000,1001.0000,156.0000
-160.0000,-1005.0000,-167.0000,121.0000,-20.0000,972.0000,604.0000,457.0000,604.0000,236.0000,-683.0000,-351.0000,457.0000,604.0000,972.0000,568.0000,-301.0000,930.0000,191.0000
50.0000,-759.0000,-94.0000,156.0000,-57.0000,862.0000,310.0000,420.0000,641.0000,89.0000,-241.0000,-167.0000,384.0000,494.0000,899.0000,715.0000,50.0000,719.0000,85.0000
191.0000,-653.0000,-57.0000,15.0000,-20.0000,604.0000,163.0000,420.0000,310.0000,163.0000,-94.0000,-131.0000,236.0000,347.0000,715.0000,788.0000,-195.0000,543.0000,15.0000
332.0000,-336.0000,52.0000,-125.0000,52.0000,568.0000,89.0000,347.0000,347.0000,126.0000,273.0000,126.0000,200.0000,457.0000,641.0000,604.0000,121.0000,437.0000,50.0000
543.0000,-266.0000,16.0000,-125.0000,-57.0000,420.0000,-204.0000,273.0000,347.0000,16.0000,420.0000,126.0000,52.0000,310.0000,384.0000,862.0000,156.0000,191.0000,-125.0000
543.0000,-55.0000,52.0000,-336.0000,16.0000,347.0000,-167.0000,236.0000,236.0000,126.0000,494.0000,310.0000,-20.0000,384.0000,273.0000,568.0000,-19.0000,191.0000,15.0000
578.0000,121.0000,52.0000,-336.0000,-57.0000,347.0000,-315.0000,163.0000,420.0000,52.0000,641.0000,420.0000,-57.0000,420.0000,200.0000,641.0000,332.0000,50.0000,15.0000
508.0000,50.0000,-20.0000,-371.0000,-94.0000,200.0000,-351.0000,126.0000,273.0000,163.0000,568.0000,273.0000,-204.0000,273.0000,52.0000,715.0000,15.0000,-55.0000,-55.0000
473.0000,261.0000,52.0000,-477.0000,-57.0000,163.0000,-278.0000,89.0000,273.0000,236.0000,752.0000,494.0000,-204.0000,384.0000,16.0000,420.0000,191.0000,-90.0000,50.0000
543.0000,297.0000,16.0000,-336.0000,-131.0000,-20.0000,-462.0000,16.0000,236.0000,126.0000,752.0000,420.0000,-315.0000,200.0000,-94.0000,641.0000,261.0000,-336.0000,-125.0000
402.0000,402.0000,-20.0000,-407.0000,-131.0000,-241.0000,-278.0000,16.0000,163.0000,384.0000,641.0000,420.0000,-351.0000,52.0000,-20.0000,420.0000,-55.0000,-477.0000,85.0000
332.0000,543.0000,-131.0000,-407.0000,-241.0000,-425.0000,-241.0000,16.0000,568.0000,641.0000,641.0000,494.0000,-462.0000,-94.0000,52.0000,384.0000,261.0000,-864.0000,578.0000
121.0000,613.0000,-204.0000,-266.0000,-388.0000,-719.0000,-204.0000,126.0000,641.0000,1193.0000,310.0000,273.0000,-756.0000,-388.0000,-241.0000,494.0000,85.0000,-1075.0000,1141.0000
15.0000,1036.0000,494.0000,50.0000,-57.0000,-572.0000,89.0000,236.0000,310.0000,1340.0000,310.0000,420.0000,-535.0000,-278.0000,-683.0000,89.0000,402.0000,-512.0000,1106.0000
226.0000,1106.0000,1120.0000,684.0000,273.0000,-425.0000,420.0000,236.0000,-167.0000,641.0000,163.0000,236.0000,-131.0000,-351.0000,-572.0000,200.0000,719.0000,-231.0000,297.0000
-55.0000,754.0000,273.0000,684.0000,-131.0000,-388.0000,1304.0000,310.0000,-20.0000,494.0000,-609.0000,-167.0000,-94.0000,-351.0000,457.0000,89.0000,261.0000,-336.0000,543.0000
-583.0000,473.0000,-609.0000,684.0000,-535.0000,-131.0000,1340.0000,310.0000,494.0000,531.0000,-756.0000,-94.0000,89.0000,-131.0000,531.0000,89.0000,508.0000,-125.0000,719.0000
-301.0000,719.0000,163.0000,965.0000,16.0000,-94.0000,200.0000,52.0000,-388.0000,310.0000,236.0000,347.0000,273.0000,-131.0000,-867.0000,163.0000,578.0000,191.0000,-195.0000
684.0000,1564.0000,1267.0000,860.0000,899.0000,-204.0000,-719.0000,-315.0000,-1235.0000,126.0000,1635.0000,1156.0000,347.0000,52.0000,-1566.0000,-315.0000,825.0000,191.0000,-653.0000
1353.0000,1951.0000,1340.0000,754.0000,1009.0000,-388.0000,-1161.0000,-535.0000,-1087.0000,-204.0000,2187.0000,1414.0000,163.0000,52.0000,-1382.0000,-351.0000,1036.0000,-160.0000,-794.0000
1282.0000,1881.0000,1120.0000,613.0000,972.0000,-425.0000,-1051.0000,-572.0000,-1124.0000,-315.0000,2003.0000,1340.0000,52.0000,89.0000,-1198.0000,-609.0000,649.0000,-55.0000,-723.0000
1212.0000,1881.0000,1304.0000,719.0000,1009.0000,-241.0000,-1051.0000,-572.0000,-1124.0000,-572.0000,1929.0000,1340.0000,126.0000,163.0000,-1161.0000,-940.0000,965.0000,121.0000,-723.0000
1141.0000,1388.0000,1377.0000,860.0000,936.0000,-278.0000,-1198.0000,-572.0000,-1124.0000,-609.0000,1561.0000,788.0000,52.0000,-131.0000,-1198.0000,-719.0000,719.0000,226.0000,-864.0000
789.0000,860.0000,1340.0000,613.0000,972.0000,-241.0000,-867.0000,-462.0000,-940.0000,-241.0000,1193.0000,384.0000,89.0000,-241.0000,-903.0000,-867.0000,261.0000,508.0000,-618.0000
543.0000,191.0000,1120.0000,437.0000,788.0000,-204.0000,-756.0000,-388.0000,-425.0000,-57.0000,936.0000,-131.0000,126.0000,-425.0000,-572.0000,-535.0000,156.0000,613.0000,-512.0000
121.0000,-547.0000,825.0000,156.0000,715.0000,-204.0000,-535.0000,-241.0000,-241.0000,347.0000,457.0000,-646.0000,163.0000,-609.0000,-278.0000,-315.0000,-547.0000,754.0000,-336.0000
-231.0000,-935.0000,604.0000,-160.0000,678.0000,16.0000,-167.0000,-94.0000,200.0000,678.0000,236.0000,-830.0000,273.0000,-499.0000,126.0000,-278.0000,-688.0000,825.0000,50.0000
-583.0000,-1498.0000,163.0000,-336.0000,457.0000,52.0000,-20.0000,89.0000,678.0000,899.0000,-167.0000,-1235.0000,310.0000,-609.0000,494.0000,163.0000,-970.0000,684.0000,156.0000
-1040.0000,-1815.0000,-204.0000,-688.0000,384.0000,126.0000,420.0000,273.0000,1009.0000,1304.0000,-609.0000,-1382.0000,384.0000,-572.0000,936.0000,163.0000,-1463.0000,684.0000,508.0000
-1287.0000,-2026.0000,-535.0000,-899.0000,200.0000,163.0000,531.0000,347.0000,1561.0000,1340.0000,-793.0000,-1419.0000,494.0000,-535.0000,1377.0000,494.0000,-1357.0000,543.0000,684.0000
-1568.0000,-2378.0000,-940.0000,-1146.0000,16.0000,89.0000,715.0000,494.0000,1708.0000,1488.0000,-1235.0000,-1566.0000,494.0000,-572.0000,1672.0000,788.0000,-1815.0000,508.0000,825.0000
-1850.0000,-2378.0000,-1161.0000,-1427.0000,-20.0000,200.0000,1046.0000,678.0000,2003.0000,1672.0000,-1382.0000,-1419.0000,604.0000,-388.0000,2003.0000,715.0000,-1850.0000,543.0000,1177.0000
-1955.0000,-2519.0000,-1419.0000,-1463.0000,-204.0000,236.0000,1083.0000,788.0000,2297.0000,1672.0000,-1603.0000,-1529.0000,678.0000,-388.0000,2113.0000,1046.0000,-1885.0000,402.0000,1212.0000
-2202.0000,-2519.0000,-1603.0000,-1639.0000,-204.0000,347.0000,1451.0000,1009.0000,2297.0000,1929.0000,-1897.0000,-1455.0000,825.0000,-241.0000,2224.0000,936.0000,-2237.0000,437.0000,1493.0000
-2237.0000,-2378.0000,-1676.0000,-1639.0000,-278.0000,568.0000,1672.0000,1120.0000,2187.0000,1819.0000,-1897.0000,-1271.0000,1009.0000,-94.0000,2371.0000,972.0000,-1885.0000,402.0000,1669.0000
-2272.0000,-2343.0000,-1823.0000,-1568.0000,-351.0000,641.0000,1745.0000,1193.0000,2113.0000,1672.0000,-2118.0000,-1271.0000,1009.0000,-94.0000,2297.0000,1156.0000,-1991.0000,367.0000,1599.0000
-2237.0000,-2131.0000,-1713.0000,-1533.0000,-278.0000,862.0000,1929.0000,1193.0000,2040.0000,1561.0000,-1971.0000,-903.0000,1083.0000,236.0000,2187.0000,862.0000,-1779.0000,543.0000,1705.0000
-1955.0000,-1850.0000,-1603.0000,-1216.0000,-315.0000,972.0000,1745.0000,1156.0000,1966.0000,1120.0000,-1823.0000,-683.0000,1120.0000,347.0000,2113.0000,1009.0000,-1357.0000,508.0000,1493.0000
-1815.0000,-1568.0000,-1419.0000,-1075.0000,-204.0000,1046.0000,1745.0000,1120.0000,1708.0000,1083.0000,-1787.0000,-462.0000,1120.0000,531.0000,2040.0000,862.0000,-1392.0000,578.0000,1388.0000
-1568.0000,-1111.0000,-1161.0000,-794.0000,-94.0000,1156.0000,1635.0000,1083.0000,1451.0000,899.0000,-1419.0000,-131.0000,1193.0000,715.0000,1856.0000,678.0000,-829.0000,613.0000,1353.0000
-1287.0000,-1005.0000,-1014.0000,-512.0000,-57.0000,1120.0000,1377.0000,1046.0000,1083.0000,678.0000,-1308.0000,-94.0000,1120.0000,641.0000,1561.0000,825.0000,-759.0000,578.0000,1036.0000
-1111.0000,-583.0000,-719.0000,-371.0000,126.0000,1193.0000,1414.0000,1009.0000,752.0000,678.0000,-1087.0000,310.0000,1156.0000,862.0000,1451.0000,494.0000,-583.0000,719.0000,1036.0000
-794.0000,-266.0000,-499.0000,15.0000,200.0000,1193.0000,1156.0000,899.0000,641.0000,273.0000,-830.0000,494.0000,1156.0000,899.0000,1193.0000,531.0000,-90.0000,684.0000,754.0000
-618.0000,-19.0000,-241.0000,297.0000,347.0000,1156.0000,1009.0000,752.0000,163.0000,126.0000,-756.0000,604.0000,1120.0000,936.0000,936.0000,310.0000,-160.0000,860.0000,508.0000
-371.0000,437.0000,126.0000,613.0000,531.0000,1230.0000,862.0000,531.0000,-20.0000,-167.0000,-388.0000,936.0000,1193.0000,1120.0000,788.0000,-20.0000,367.0000,1001.0000,367.0000
-90.0000,613.0000,273.0000,1036.0000,568.0000,1156.0000,568.0000,310.0000,-315.0000,-572.0000,-241.0000,972.0000,1156.0000,1009.0000,494.0000,16.0000,543.0000,965.0000,-19.0000
50.0000,1001.0000,457.0000,1177.0000,752.0000,1120.0000,568.0000,200.0000,-646.0000,-683.0000,-57.0000,1267.0000,1193.0000,1156.0000,310.0000,-388.0000,613.0000,1036.0000,-90.0000
332.0000,1423.0000,641.0000,1564.0000,788.0000,1120.0000,310.0000,-20.0000,-683.0000,-1087.0000,200.0000,1524.0000,1156.0000,1193.0000,89.0000,-462.0000,1177.0000,930.0000,-301.0000
473.0000,1810.0000,825.0000,1881.0000,862.0000,1009.0000,236.0000,-131.0000,-1014.0000,-1235.0000,126.0000,1892.0000,1083.0000,1193.0000,-204.0000,-609.0000,1071.0000,965.0000,-371.0000
473.0000,2373.0000,1156.0000,2162.0000,1083.0000,1083.0000,310.0000,-167.0000,-1051.0000,-1235.0000,273.0000,2776.0000,1193.0000,1561.0000,-388.0000,-1051.0000,1317.0000,965.0000,15.0000
402.0000,2444.0000,1340.0000,2479.0000,1193.0000,1083.0000,200.0000,-57.0000,-1051.0000,-1198.0000,310.0000,2702.0000,1120.0000,1782.0000,-756.0000,-940.0000,1141.0000,719.0000,473.0000
261.0000,2585.0000,1598.0000,2479.0000,1414.0000,1083.0000,347.0000,200.0000,-1235.0000,-719.0000,862.0000,2592.0000,825.0000,1819.0000,-1198.0000,-1161.0000,825.0000,789.0000,1071.0000
825.0000,3218.0000,2076.0000,3007.0000,1561.0000,1156.0000,-57.0000,420.0000,-1419.0000,-683.0000,2076.0000,2481.0000,310.0000,1414.0000,-1860.0000,-1014.0000,1810.0000,1036.0000,719.0000
1986.0000,3113.0000,2886.0000,3007.0000,1451.0000,1156.0000,-683.0000,531.0000,-2118.0000,-903.0000,2739.0000,2187.0000,-315.0000,752.0000,-2633.0000,-793.0000,2901.0000,1247.0000,-407.0000
3042.0000,2972.0000,3070.0000,2901.0000,1156.0000,1046.0000,-1087.0000,420.0000,-2375.0000,-977.0000,2739.0000,1672.0000,-683.0000,862.0000,-2817.0000,-903.0000,3359.0000,895.0000,-970.0000
3253.0000,2866.0000,2923.0000,2761.0000,568.0000,384.0000,-1198.0000,236.0000,-1860.0000,-830.0000,2113.0000,2076.0000,-867.0000,972.0000,-2449.0000,-425.0000,3218.0000,-266.0000,-899.0000
2937.0000,2761.0000,2408.0000,2655.0000,236.0000,-351.0000,-572.0000,273.0000,-1308.0000,-131.0000,1635.0000,2150.0000,-903.0000,1009.0000,-1823.0000,-351.0000,2937.0000,-1146.0000,-160.0000
2338.0000,2655.0000,1120.0000,2197.0000,126.0000,-683.0000,-278.0000,310.0000,-719.0000,16.0000,1929.0000,2076.0000,-867.0000,936.0000,-1382.0000,-241.0000,2233.0000,-1674.0000,191.0000
1881.0000,2549.0000,604.0000,1317.0000,163.0000,-867.0000,-462.0000,236.0000,-719.0000,-20.0000,2113.0000,2003.0000,-940.0000,641.0000,-1308.0000,-20.0000,1705.0000,-1815.0000,-160.0000
1669.0000,2444.0000,862.0000,1001.0000,347.0000,-830.0000,-572.0000,163.0000,-609.0000,126.0000,2076.0000,1929.0000,-867.0000,641.0000,-1087.0000,-167.0000,1669.0000,-1427.0000,-266.0000
1669.0000,2338.0000,1083.0000,965.0000,273.0000,-719.0000,-756.0000,89.0000,-278.0000,126.0000,1672.0000,1819.0000,-830.0000,273.0000,-793.0000,273.0000,1634.0000,-1146.0000,-442.0000
1493.0000,2268.0000,1046.0000,754.0000,163.0000,-609.0000,-425.0000,126.0000,-167.0000,384.0000,1193.0000,825.0000,-793.0000,-57.0000,-388.0000,384.0000,1071.0000,-723.0000,-442.0000
1529.0000,1529.0000,936.0000,613.0000,16.0000,-425.0000,-241.0000,126.0000,200.0000,310.0000,1120.0000,163.0000,-683.0000,-167.0000,-20.0000,494.0000,1282.0000,-442.0000,-442.0000
1599.0000,613.0000,641.0000,473.0000,-241.0000,-462.0000,-167.0000,163.0000,347.0000,236.0000,678.0000,-572.0000,-683.0000,-572.0000,200.0000,936.0000,1001.0000,-301.0000,-618.0000
1282.0000,85.0000,310.0000,-55.0000,-388.0000,-499.0000,236.0000,236.0000,678.0000,531.0000,163.0000,-903.0000,-572.0000,-683.0000,604.0000,936.0000,578.0000,-231.0000,-371.0000
754.0000,-512.0000,-204.0000,-477.0000,-683.0000,-646.0000,420.0000,200.0000,1340.0000,568.0000,-241.0000,-1198.0000,-609.0000,-867.0000,1083.0000,1377.0000,332.0000,-512.0000,-336.0000
121.0000,-1146.0000,-756.0000,-1111.0000,-903.0000,-940.0000,715.0000,126.0000,1635.0000,788.0000,-830.0000,-1455.0000,-646.0000,-977.0000,1561.0000,1598.0000,-442.0000,-653.0000,-266.0000
-371.0000,-1427.0000,-1198.0000,-1639.0000,-1051.0000,-977.0000,936.0000,16.0000,2113.0000,825.0000,-1051.0000,-1419.0000,-572.0000,-940.0000,2076.0000,1561.0000,-547.0000,-759.0000,-19.0000
-688.0000,-1885.0000,-1639.0000,-1885.0000,-1271.0000,-1124.0000,825.0000,-94.0000,2297.0000,752.0000,-1382.0000,-1676.0000,-572.0000,-1161.0000,2334.0000,1819.0000,-899.0000,-935.0000,-19.0000
-1075.0000,-2026.0000,-1823.0000,-2202.0000,-1235.0000,-1124.0000,1046.0000,-131.0000,2187.0000,899.0000,-1529.0000,-1603.0000,-425.0000,-1124.0000,2224.0000,1451.0000,-1251.0000,-759.0000,297.0000
-1181.0000,-1991.0000,-1934.0000,-2167.0000,-1271.0000,-1014.0000,1009.0000,-241.0000,2113.0000,678.0000,-1419.0000,-1492.0000,-315.0000,-1014.0000,2150.0000,1304.0000,-1005.0000,-723.0000,437.0000
-1287.0000,-1991.0000,-2007.0000,-2061.0000,-1198.0000,-903.0000,972.0000,-278.0000,2040.0000,568.0000,-1492.0000,-1455.0000,-241.0000,-1014.0000,2076.0000,1009.0000,-1287.0000,-547.0000,508.0000
-1287.0000,-1639.0000,-1823.0000,-1920.0000,-1014.0000,-535.0000,972.0000,-315.0000,1745.0000,310.0000,-1235.0000,-1087.0000,-57.0000,-646.0000,2003.0000,384.0000,-1005.0000,-266.0000,649.0000
-1111.0000,-1463.0000,-1713.0000,-1498.0000,-903.0000,-315.0000,641.0000,-315.0000,1193.0000,-131.0000,-1051.0000,-940.0000,16.0000,-535.0000,1856.0000,236.0000,-829.0000,-125.0000,437.0000
-1040.0000,-1111.0000,-1455.0000,-1287.0000,-646.0000,-57.0000,641.0000,-131.0000,457.0000,-241.0000,-867.0000,-646.0000,163.0000,-278.0000,1267.0000,-351.0000,-864.0000,156.0000,543.0000
-759.0000,-759.0000,-1124.0000,-935.0000,-462.0000,236.0000,347.0000,-20.0000,-57.0000,-572.0000,-462.0000,-388.0000,273.0000,-57.0000,715.0000,-683.0000,-336.0000,261.0000,543.0000
-547.0000,-688.0000,-940.0000,-653.0000,-351.0000,273.0000,89.0000,16.0000,-756.0000,-609.0000,-388.0000,-425.0000,236.0000,-94.0000,126.0000,-867.0000,-442.0000,332.0000,402.0000
-407.0000,-371.0000,-646.0000,-547.0000,-131.0000,420.0000,16.0000,52.0000,-1161.0000,-572.0000,-94.0000,-131.0000,310.0000,89.0000,-241.0000,-1345.0000,-231.0000,473.0000,508.0000
-195.0000,-301.0000,-462.0000,-266.0000,-94.0000,420.0000,-315.0000,52.0000,-1308.0000,-756.0000,52.0000,-167.0000,273.0000,16.0000,-609.0000,-1308.0000,-19.0000,402.0000,261.0000
-160.0000,-231.0000,-315.0000,-231.0000,16.0000,457.0000,-315.0000,89.0000,-1639.0000,-609.0000,52.0000,-131.0000,273.0000,16.0000,-830.0000,-1566.0000,-301.0000,508.0000,297.0000
-55.0000,-55.0000,-167.0000,-90.0000,89.0000,531.0000,-425.0000,89.0000,-1566.0000,-609.0000,236.0000,16.0000,310.0000,89.0000,-940.0000,-1676.0000,50.0000,543.0000,297.0000
15.0000,-55.0000,-94.0000,85.0000,52.0000,457.0000,-535.0000,163.0000,-1639.0000,-499.0000,126.0000,-94.0000,126.0000,-20.0000,-1124.0000,-1529.0000,-160.0000,473.0000,85.0000
-19.0000,156.0000,89.0000,121.0000,163.0000,568.0000,-425.0000,163.0000,-1603.0000,-351.0000,200.0000,163.0000,126.0000,163.0000,-1124.0000,-1750.0000,-90.0000,649.0000,191.0000
156.0000,261.0000,200.0000,402.0000,126.0000,641.0000,-683.0000,89.0000,-1492.0000,-572.0000,310.0000,163.0000,16.0000,89.0000,-1235.0000,-1529.0000,226.0000,613.0000,-55.0000
191.0000,332.0000,347.0000,543.0000,200.0000,641.0000,-646.0000,52.0000,-1639.0000,-572.0000,236.0000,200.0000,-20.0000,126.0000,-1271.0000,-1529.0000,15.0000,754.0000,-125.0000
332.0000,613.0000,568.0000,754.0000,310.0000,752.0000,-683.0000,-20.0000,-1455.0000,-719.0000,420.0000,384.0000,16.0000,273.0000,-1235.0000,-1603.0000,437.0000,825.0000,-160.0000
473.0000,684.0000,641.0000,1071.0000,273.0000,715.0000,-830.0000,-94.0000,-1492.0000,-940.0000,384.0000,310.0000,-20.0000,200.0000,-1345.0000,-1308.0000,437.0000,825.0000,-407.0000
508.0000,1036.0000,899.0000,1247.0000,457.0000,825.0000,-719.0000,-167.0000,-1639.0000,-1051.0000,384.0000,678.0000,52.0000,420.0000,-1382.0000,-1529.0000,543.0000,1071.0000,-371.0000
684.0000,1353.0000,1156.0000,1705.0000,568.0000,936.0000,-867.0000,-241.0000,-1603.0000,-1529.0000,494.0000,1046.0000,236.0000,604.0000,-1529.0000,-1455.0000,965.0000,1141.0000,-512.0000
578.0000,1529.0000,1451.0000,2057.0000,862.0000,1009.0000,-719.0000,-278.0000,-1787.0000,-1639.0000,273.0000,1414.0000,494.0000,825.0000,-1750.0000,-1529.0000,578.0000,1423.0000,-407.0000
402.0000,1845.0000,1892.0000,2373.0000,1340.0000,1230.0000,-499.0000,-167.0000,-1639.0000,-1455.0000,494.0000,2113.0000,862.0000,1193.0000,-1897.0000,-1750.0000,613.0000,1493.0000,85.0000
473.0000,1845.0000,2224.0000,2690.0000,1561.0000,1120.0000,-609.0000,52.0000,-1566.0000,-1014.0000,899.0000,2297.0000,715.0000,1083.0000,-2265.0000,-1419.0000,437.0000,1141.0000,367.0000
789.0000,2197.0000,2665.0000,2725.0000,1635.0000,1009.0000,-499.0000,310.0000,-1676.0000,-315.0000,1561.0000,2224.0000,200.0000,936.0000,-2523.0000,-1419.0000,613.0000,1106.0000,684.0000
1493.0000,2514.0000,2923.0000,2620.0000,1304.0000,1009.0000,-683.0000,236.0000,-1382.0000,-388.0000,2040.0000,1892.0000,-388.0000,678.0000,-2633.0000,-1014.0000,1845.0000,1071.0000,191.0000
2021.0000,2409.0000,2812.0000,2479.0000,972.0000,788.0000,-719.0000,52.0000,-1198.0000,-572.0000,1708.0000,1193.0000,-683.0000,531.0000,-2523.0000,-535.0000,2514.0000,825.0000,-688.0000
2338.0000,2303.0000,2702.0000,2373.0000,752.0000,457.0000,-683.0000,-131.0000,-756.0000,-462.0000,1635.0000,1377.0000,-719.0000,788.0000,-1897.0000,-241.0000,2761.0000,50.0000,-1146.0000
2549.0000,2233.0000,2592.0000,2303.0000,310.0000,-167.0000,-940.0000,-131.0000,-204.0000,16.0000,1451.0000,1377.0000,-940.0000,678.0000,-1198.0000,604.0000,2655.0000,-1075.0000,-1216.0000
2197.0000,2127.0000,1672.0000,2197.0000,16.0000,-719.0000,-572.0000,52.0000,273.0000,788.0000,1046.0000,1524.0000,-1087.0000,604.0000,-462.0000,899.0000,1564.0000,-1603.0000,-442.0000
1529.0000,2057.0000,936.0000,1705.0000,-20.0000,-867.0000,-278.0000,126.0000,862.0000,972.0000,972.0000,1745.0000,-940.0000,641.0000,-94.0000,1230.0000,1247.0000,-1709.0000,226.0000
860.0000,1986.0000,752.0000,1036.0000,52.0000,-940.0000,-131.0000,163.0000,862.0000,1046.0000,678.0000,1598.0000,-793.0000,494.0000,-57.0000,1561.0000,965.0000,-1603.0000,191.0000
578.0000,1916.0000,899.0000,649.0000,163.0000,-977.0000,-20.0000,89.0000,936.0000,1156.0000,752.0000,1524.0000,-646.0000,457.0000,273.0000,1451.0000,1177.0000,-1603.0000,15.0000
895.0000,1845.0000,788.0000,367.0000,-57.0000,-1198.0000,-315.0000,-20.0000,1046.0000,1120.0000,1083.0000,862.0000,-719.0000,-20.0000,457.0000,1892.0000,1247.0000,-1920.0000,-512.0000
1177.0000,1493.0000,347.0000,-160.0000,-241.0000,-1382.0000,-204.0000,16.0000,862.0000,1377.0000,1230.0000,126.0000,-756.0000,-351.0000,715.0000,1929.0000,789.0000,-1920.0000,-583.0000
1388.0000,719.0000,-131.0000,-512.0000,-462.0000,-1308.0000,-20.0000,16.0000,1046.0000,1267.0000,1230.0000,-315.0000,-683.0000,-462.0000,1120.0000,1929.0000,895.0000,-1920.0000,-512.0000
1212.0000,-55.0000,-756.0000,-759.0000,-683.0000,-1345.0000,200.0000,-20.0000,1193.0000,1120.0000,678.0000,-940.0000,-646.0000,-756.0000,1524.0000,2150.0000,367.0000,-1955.0000,-653.0000
684.0000,-477.0000,-1087.0000,-1181.0000,-719.0000,-1271.0000,678.0000,-94.0000,1488.0000,1193.0000,163.0000,-1087.0000,-462.0000,-719.0000,2003.0000,1856.0000,-55.0000,-1709.0000,-407.0000
226.0000,-970.0000,-1382.0000,-1392.0000,-903.0000,-1198.0000,715.0000,-204.0000,1819.0000,899.0000,-315.0000,-1345.0000,-351.0000,-793.0000,2260.0000,2040.0000,-125.0000,-1568.0000,-442.0000
-301.0000,-1463.0000,-1603.0000,-1674.0000,-977.0000,-1087.0000,862.0000,-204.0000,1745.0000,788.0000,-867.0000,-1492.0000,-241.0000,-756.0000,2408.0000,1966.0000,-688.0000,-1181.0000,-336.0000
-653.0000,-1533.0000,-1639.0000,-1779.0000,-867.0000,-793.0000,862.0000,-278.0000,1745.0000,457.0000,-977.0000,-1308.0000,-20.0000,-535.0000,2518.0000,1708.0000,-583.0000,-759.0000,-231.0000
-829.0000,-1815.0000,-1676.0000,-1709.0000,-830.0000,-646.0000,678.0000,-315.0000,1524.0000,16.0000,-1198.0000,-1382.0000,89.0000,-572.0000,2444.0000,1745.0000,-829.0000,-407.0000,-336.0000
-1075.0000,-1850.0000,-1603.0000,-1744.0000,-646.0000,-351.0000,752.0000,-315.0000,1230.0000,-57.0000,-1271.0000,-1198.0000,273.0000,-425.0000,2444.0000,1230.0000,-1075.0000,15.0000,-55.0000
-1111.0000,-1920.0000,-1566.0000,-1603.0000,-609.0000,-167.0000,531.0000,-315.0000,1156.0000,-351.0000,-1161.0000,-1235.0000,384.0000,-425.0000,2334.0000,1083.0000,-935.0000,156.0000,-19.0000
-1216.0000,-2096.0000,-1603.0000,-1568.0000,-499.0000,-131.0000,494.0000,-241.0000,752.0000,-315.0000,-1198.0000,-1345.0000,420.0000,-499.0000,2113.0000,715.0000,-1357.0000,437.0000,85.0000
-1216.0000,-1885.0000,-1419.0000,-1533.0000,-315.0000,89.0000,494.0000,-131.0000,494.0000,-351.0000,-903.0000,-1161.0000,531.0000,-315.0000,1856.0000,163.0000,-1181.0000,719.0000,367.0000
-1075.0000,-1885.0000,-1308.0000,-1322.0000,-241.0000,163.0000,273.0000,16.0000,126.0000,-499.0000,-756.0000,-1198.0000,457.0000,-351.0000,1377.0000,52.0000,-1111.0000,789.0000,367.0000
-1005.0000,-1744.0000,-1087.0000,-1287.0000,-94.0000,310.0000,273.0000,236.0000,-241.0000,-315.0000,-646.0000,-1087.0000,420.0000,-241.0000,936.0000,-499.0000,-1216.0000,1001.0000,649.0000
-829.0000,-1568.0000,-903.0000,-1075.0000,-131.0000,457.0000,52.0000,347.0000,-241.0000,-315.0000,-388.0000,-1014.0000,310.0000,-167.0000,604.0000,-609.0000,-794.0000,930.0000,754.0000
-759.0000,-1603.0000,-903.0000,-1005.0000,-167.0000,384.0000,-20.0000,494.0000,-462.0000,-131.0000,-499.0000,-1087.0000,89.0000,-278.0000,273.0000,-609.0000,-1005.0000,825.0000,789.0000
-759.0000,-1392.0000,-793.0000,-1075.0000,-204.0000,420.0000,89.0000,604.0000,-351.0000,89.0000,-388.0000,-867.0000,16.0000,-94.0000,200.0000,-903.0000,-829.0000,684.0000,1001.0000
-653.0000,-1392.0000,-830.0000,-970.0000,-351.0000,273.0000,-57.0000,678.0000,-204.0000,126.0000,-425.0000,-940.0000,-131.0000,-278.0000,52.0000,-609.0000,-723.0000,297.0000,895.0000
-723.0000,-1322.0000,-867.0000,-1075.0000,-388.0000,163.0000,52.0000,752.0000,-278.0000,531.0000,-535.0000,-867.0000,-241.0000,-241.0000,52.0000,-719.0000,-970.0000,85.0000,1001.0000
-688.0000,-1111.0000,-830.0000,-1040.0000,-499.0000,126.0000,16.0000,715.0000,-20.0000,641.0000,-388.0000,-683.0000,-241.0000,-167.0000,52.0000,-572.0000,-547.0000,-125.0000,1001.0000
-618.0000,-1111.0000,-867.0000,-970.0000,-535.0000,16.0000,-57.0000,715.0000,-94.0000,678.0000,-462.0000,-719.0000,-315.0000,-241.0000,-131.0000,-315.0000,-794.0000,-301.0000,789.0000
-618.0000,-794.0000,-719.0000,-935.0000,-425.0000,126.0000,52.0000,715.0000,-94.0000,715.0000,-315.0000,-425.0000,-241.0000,16.0000,-167.0000,-462.0000,-653.0000,-266.0000,825.0000
-442.0000,-688.0000,-683.0000,-653.0000,-425.0000,163.0000,-131.0000,604.0000,-57.0000,494.0000,-241.0000,-351.0000,-241.0000,16.0000,-315.0000,-131.0000,-371.0000,-371.0000,578.0000
-371.0000,-547.0000,-535.0000,-583.0000,-351.0000,163.0000,-57.0000,568.0000,-278.0000,494.0000,-278.0000,-241.0000,-241.0000,89.0000,-462.0000,-131.0000,-583.0000,-266.0000,473.0000
-266.0000,-266.0000,-351.0000,-407.0000,-241.0000,310.0000,-94.0000,457.0000,-167.0000,236.0000,-57.0000,-20.0000,-167.0000,273.0000,-499.0000,-131.0000,-160.0000,-195.0000,402.0000
-195.0000,-301.0000,-278.0000,-125.0000,-241.0000,310.0000,-204.0000,420.0000,-241.0000,-20.0000,-131.0000,-131.0000,-167.0000,163.0000,-646.0000,163.0000,-231.0000,-160.0000,121.0000
-160.0000,-55.0000,-94.0000,15.0000,-94.0000,420.0000,-57.0000,347.0000,-351.0000,16.0000,-94.0000,126.0000,-20.0000,347.0000,-683.0000,-20.0000,-160.0000,50.0000,156.0000
-19.0000,191.0000,126.0000,402.0000,-20.0000,457.0000,-204.0000,200.0000,-351.0000,-131.0000,-20.0000,200.0000,52.0000,347.0000,-830.0000,200.0000,226.0000,50.0000,-125.0000
50.0000,367.0000,347.0000,578.0000,163.0000,420.0000,-204.0000,52.0000,-646.0000,-57.0000,-131.0000,384.0000,200.0000,457.0000,-1014.0000,126.0000,50.0000,226.0000,-231.0000
85.0000,789.0000,678.0000,789.0000,420.0000,568.0000,-131.0000,-94.0000,-646.0000,-204.0000,16.0000,899.0000,457.0000,788.0000,-1051.0000,-94.0000,402.0000,402.0000,-195.0000
50.0000,895.0000,862.0000,1177.0000,641.0000,641.0000,-167.0000,-167.0000,-719.0000,-462.0000,-57.0000,1230.0000,752.0000,972.0000,-1235.0000,16.0000,332.0000,508.0000,-266.0000
-90.0000,1106.0000,1193.0000,1458.0000,1046.0000,936.0000,52.0000,-131.0000,-830.0000,-278.0000,126.0000,1782.0000,972.0000,1304.0000,-1382.0000,-351.0000,121.0000,684.0000,191.0000
121.0000,1212.0000,1524.0000,1916.0000,1193.0000,1120.0000,-131.0000,16.0000,-572.0000,-167.0000,788.0000,2150.0000,825.0000,1304.0000,-1713.0000,-241.0000,367.0000,578.0000,473.0000
473.0000,1458.0000,1929.0000,2338.0000,1267.0000,1083.0000,-204.0000,200.0000,-683.0000,89.0000,1414.0000,2040.0000,384.0000,1046.0000,-2118.0000,-131.0000,261.0000,613.0000,473.0000
1036.0000,2444.0000,2665.0000,2796.0000,1414.0000,1046.0000,-388.0000,163.0000,-646.0000,-57.0000,2040.0000,2076.0000,89.0000,1046.0000,-2375.0000,-241.0000,1212.0000,649.0000,156.0000
1634.0000,2725.0000,3144.0000,2866.0000,1340.0000,715.0000,-793.0000,-57.0000,-609.0000,-241.0000,1966.0000,1856.0000,-204.0000,936.0000,-2486.0000,200.0000,2162.0000,367.0000,-547.0000
1986.0000,2620.0000,3033.0000,2761.0000,1120.0000,420.0000,-683.0000,-167.0000,-425.0000,200.0000,1561.0000,1561.0000,-351.0000,936.0000,-2118.0000,236.0000,2514.0000,191.0000,-653.0000
2303.0000,2514.0000,2481.0000,2655.0000,568.0000,200.0000,-499.0000,-241.0000,163.0000,494.0000,1340.0000,1230.0000,-462.0000,788.0000,-1455.0000,604.0000,2831.0000,-160.0000,-688.0000
2268.0000,2409.0000,1819.0000,2549.0000,236.0000,-241.0000,-204.0000,-204.0000,310.0000,678.0000,972.0000,1046.0000,-535.0000,531.0000,-903.0000,972.0000,2021.0000,-547.0000,-723.0000
1845.0000,2303.0000,1524.0000,1951.0000,347.0000,-425.0000,126.0000,-204.0000,568.0000,715.0000,1046.0000,1488.0000,-351.0000,752.0000,-388.0000,862.0000,1564.0000,-794.0000,-371.0000
1388.0000,2127.0000,1377.0000,1599.0000,384.0000,-572.0000,16.0000,-167.0000,715.0000,494.0000,1009.0000,1561.0000,-241.0000,715.0000,-241.0000,1120.0000,1493.0000,-935.0000,-301.0000
1001.0000,2162.0000,1340.0000,1247.0000,494.0000,-646.0000,163.0000,-57.0000,531.0000,568.0000,862.0000,1414.0000,-167.0000,568.0000,-94.0000,936.0000,1247.0000,-829.0000,-160.0000
1106.0000,2092.0000,1156.0000,860.0000,384.0000,-756.0000,200.0000,-20.0000,752.0000,568.0000,1120.0000,1120.0000,-131.0000,310.0000,163.0000,936.0000,1458.0000,-935.0000,-160.0000
1282.0000,1810.0000,568.0000,332.0000,89.0000,-1051.0000,310.0000,89.0000,899.0000,788.0000,1046.0000,531.0000,-204.0000,-131.0000,457.0000,1193.0000,930.0000,-1146.0000,-336.0000
1212.0000,1177.0000,-20.0000,-301.0000,-94.0000,-1087.0000,715.0000,126.0000,1193.0000,972.0000,825.0000,347.0000,-57.0000,-131.0000,1046.0000,1046.0000,578.0000,-1181.0000,-160.0000
895.0000,508.0000,-609.0000,-512.0000,-315.0000,-1051.0000,899.0000,16.0000,1598.0000,641.0000,420.0000,-57.0000,89.0000,-278.0000,1561.0000,1267.0000,332.0000,-1251.0000,-336.0000
332.0000,-90.0000,-940.0000,-794.0000,-315.0000,-1014.0000,1267.0000,-94.0000,1672.0000,531.0000,-94.0000,-425.0000,273.0000,-351.0000,1966.0000,1083.0000,-336.0000,-970.0000,-336.0000
-55.0000,-477.0000,-977.0000,-935.0000,-278.0000,-793.0000,1414.0000,-241.0000,2003.0000,310.0000,-278.0000,-609.0000,457.0000,-351.0000,2260.0000,972.0000,-266.0000,-653.0000,-301.0000
-336.0000,-1040.0000,-1087.0000,-970.0000,-315.0000,-793.0000,1340.0000,-351.0000,2076.0000,163.0000,-719.0000,-1014.0000,494.0000,-572.0000,2371.0000,1193.0000,-618.0000,-477.0000,-442.0000
-688.0000,-1287.0000,-1051.0000,-1216.0000,-204.0000,-646.0000,1488.0000,-388.0000,2040.0000,163.0000,-977.0000,-1051.0000,678.0000,-499.0000,2555.0000,899.0000,-899.0000,-90.0000,-266.0000
-864.0000,-1568.0000,-1124.0000,-1287.0000,-204.0000,-535.0000,1340.0000,-425.0000,2113.0000,-57.0000,-1051.0000,-1124.0000,788.0000,-609.0000,2628.0000,1083.0000,-829.0000,50.0000,-266.0000
-1075.0000,-1815.0000,-1161.0000,-1463.0000,-131.0000,-462.0000,1414.0000,-351.0000,1819.0000,-20.0000,-1271.0000,-1198.0000,788.0000,-683.0000,2555.0000,1009.0000,-1322.0000,367.0000,-55.0000
-1181.0000,-1744.0000,-1124.0000,-1533.0000,-57.0000,-241.0000,1561.0000,-241.0000,1708.0000,-57.0000,-1161.0000,-977.0000,862.0000,-572.0000,2444.0000,752.0000,-1181.0000,613.0000,332.0000
-1216.0000,-1955.0000,-1198.0000,-1463.0000,-131.0000,-167.0000,1414.0000,-131.0000,1414.0000,-167.0000,-1161.0000,-1087.0000,825.0000,-683.0000,2297.0000,862.0000,-1287.0000,719.0000,473.0000
-1251.0000,-1920.0000,-1161.0000,-1568.0000,16.0000,16.0000,1524.0000,52.0000,1009.0000,-20.0000,-1087.0000,-1014.0000,788.0000,-572.0000,2113.0000,457.0000,-1463.0000,1036.0000,895.0000
-1111.0000,-1850.0000,-1087.0000,-1463.0000,-20.0000,126.0000,1340.0000,200.0000,825.0000,-241.0000,-793.0000,-1051.0000,752.0000,-609.0000,1856.0000,420.0000,-1111.0000,1141.0000,1001.0000
-1005.0000,-1885.0000,-1014.0000,-1392.0000,16.0000,126.0000,1193.0000,384.0000,310.0000,-278.0000,-756.0000,-1124.0000,641.0000,-719.0000,1488.0000,310.0000,-1251.0000,1317.0000,1001.0000
-829.0000,-1603.0000,-793.0000,-1322.0000,89.0000,310.0000,972.0000,457.0000,16.0000,-315.0000,-388.0000,-903.0000,641.0000,-609.0000,1120.0000,-94.0000,-829.0000,1458.0000,1106.0000
-512.0000,-1533.0000,-646.0000,-1075.0000,52.0000,273.0000,457.0000,420.0000,-315.0000,-425.0000,-204.0000,-977.0000,494.0000,-793.0000,604.0000,16.0000,-547.0000,1388.0000,860.0000
-371.0000,-1322.0000,-425.0000,-1040.0000,163.0000,273.0000,310.0000,384.0000,-609.0000,-204.0000,-57.0000,-867.0000,384.0000,-719.0000,273.0000,-278.0000,-547.0000,1423.0000,895.0000
-125.0000,-1075.0000,-241.0000,-864.0000,163.0000,273.0000,-20.0000,273.0000,-535.0000,-204.0000,236.0000,-756.0000,273.0000,-646.0000,52.0000,-278.0000,-55.0000,1247.0000,789.0000
-19.0000,-1040.0000,-241.0000,-723.0000,126.0000,163.0000,-241.0000,236.0000,-646.0000,-57.0000,163.0000,-830.0000,126.0000,-719.0000,-204.0000,-204.0000,-195.0000,1036.0000,613.0000
15.0000,-759.0000,-131.0000,-759.0000,163.0000,200.0000,-278.0000,200.0000,-572.0000,126.0000,273.0000,-535.0000,89.0000,-462.0000,-204.0000,-425.0000,-19.0000,965.0000,649.0000
156.0000,-653.0000,-131.0000,-547.0000,52.0000,126.0000,-499.0000,126.0000,-462.0000,89.0000,310.0000,-462.0000,16.0000,-425.0000,-315.0000,-167.0000,121.0000,613.0000,332.0000
85.0000,-477.0000,-131.0000,-547.0000,89.0000,89.0000,-351.0000,52.0000,-535.0000,310.0000,200.0000,-315.0000,16.0000,-278.0000,-351.0000,-278.0000,-160.0000,543.0000,297.0000
121.0000,-266.0000,-94.0000,-477.0000,52.0000,89.0000,-351.0000,-94.0000,-315.0000,273.0000,310.0000,-57.0000,16.0000,-131.0000,-315.0000,-241.0000,156.0000,367.0000,226.0000
121.0000,-266.0000,-131.0000,-336.0000,16.0000,-20.0000,-425.0000,-204.0000,-315.0000,310.0000,163.0000,-131.0000,-57.0000,-167.0000,-425.0000,-20.0000,-90.0000,121.0000,-55.0000
50.0000,-19.0000,-57.0000,-336.0000,52.0000,52.0000,-315.0000,-278.0000,-167.0000,568.0000,200.0000,89.0000,-20.0000,52.0000,-388.0000,-278.0000,-19.0000,50.0000,15.0000
121.0000,85.0000,-57.0000,-125.0000,-20.0000,16.0000,-462.0000,-425.0000,89.0000,531.0000,236.0000,89.0000,-57.0000,52.0000,-425.0000,-94.0000,191.0000,-195.0000,-231.0000
50.0000,156.0000,-57.0000,-90.0000,16.0000,-20.0000,-351.0000,-499.0000,-20.0000,641.0000,126.0000,163.0000,-57.0000,126.0000,-425.0000,-204.0000,-125.0000,-195.0000,-301.0000
121.0000,367.0000,16.0000,15.0000,52.0000,52.0000,-315.0000,-572.0000,89.0000,494.0000,273.0000,384.0000,16.0000,310.0000,-388.0000,-315.0000,226.0000,-231.0000,-266.0000
156.0000,297.0000,52.0000,226.0000,16.0000,16.0000,-425.0000,-646.0000,-20.0000,347.0000,126.0000,236.0000,-20.0000,236.0000,-535.0000,-131.0000,121.0000,-266.0000,-442.0000
121.0000,543.0000,236.0000,332.0000,163.0000,200.0000,-278.0000,-609.0000,-167.0000,384.0000,163.0000,457.0000,126.0000,531.0000,-572.0000,-462.0000,156.0000,-90.0000,-336.0000
226.0000,754.0000,384.0000,719.0000,236.0000,384.0000,-425.0000,-646.0000,-94.0000,16.0000,236.0000,715.0000,236.0000,788.0000,-683.0000,-351.0000,543.0000,-90.0000,-512.0000
156.0000,860.0000,568.0000,930.0000,457.0000,457.0000,-388.0000,-609.0000,-278.0000,16.0000,52.0000,972.0000,420.0000,972.0000,-867.0000,-388.0000,156.0000,50.0000,-407.0000
50.0000,1141.0000,862.0000,1141.0000,788.0000,715.0000,-278.0000,-499.0000,-204.0000,200.0000,384.0000,1488.0000,752.0000,1267.0000,-1051.0000,-646.0000,261.0000,191.0000,-19.0000
226.0000,1212.0000,1377.0000,1634.0000,1120.0000,788.0000,-572.0000,-388.0000,-609.0000,236.0000,1156.0000,1856.0000,752.0000,1267.0000,-1823.0000,-572.0000,261.0000,261.0000,-266.0000
1071.0000,1881.0000,2592.0000,2303.0000,1635.0000,972.0000,-977.0000,-388.0000,-1603.0000,-20.0000,2555.0000,2408.0000,384.0000,1340.0000,-2817.0000,-1087.0000,754.0000,613.0000,-794.0000
2444.0000,2761.0000,3107.0000,3077.0000,1635.0000,1083.0000,-1566.0000,-572.0000,-2118.0000,-683.0000,2592.0000,2371.0000,-204.0000,1193.0000,-3222.0000,-1161.0000,2197.0000,437.0000,-1322.0000
2655.0000,2655.0000,2996.0000,2972.0000,1009.0000,825.0000,-1382.0000,-683.0000,-1971.0000,-756.0000,2481.0000,1892.0000,-609.0000,972.0000,-3075.0000,-1087.0000,2901.0000,-160.0000,-1357.0000
2549.0000,2549.0000,2003.0000,2831.0000,236.0000,531.0000,-683.0000,-719.0000,-903.0000,-351.0000,1120.0000,1782.0000,-535.0000,1120.0000,-1971.0000,-1051.0000,2761.0000,-688.0000,-864.0000
1951.0000,2444.0000,936.0000,2725.0000,-167.0000,126.0000,-425.0000,-609.0000,126.0000,126.0000,-204.0000,1451.0000,-499.0000,972.0000,-1051.0000,-388.0000,2655.0000,-935.0000,-688.0000
543.0000,2338.0000,972.0000,2585.0000,-57.0000,-94.0000,-131.0000,-388.0000,604.0000,752.0000,-499.0000,1230.0000,-388.0000,825.0000,-388.0000,-241.0000,1810.0000,-723.0000,-371.0000
50.0000,2233.0000,1304.0000,1986.0000,273.0000,-131.0000,-241.0000,-241.0000,752.0000,678.0000,347.0000,1267.0000,-167.0000,825.0000,-167.0000,52.0000,1071.0000,-653.0000,-442.0000
649.0000,1740.0000,1561.0000,1810.0000,604.0000,-204.0000,-572.0000,-131.0000,-57.0000,273.0000,1193.0000,1377.0000,-131.0000,788.0000,-535.0000,236.0000,825.0000,-653.0000,-829.0000
1564.0000,2092.0000,1708.0000,1564.0000,788.0000,-167.0000,-793.0000,-131.0000,-683.0000,-94.0000,1819.0000,1635.0000,-94.0000,899.0000,-646.0000,-20.0000,1423.0000,-618.0000,-864.0000
2092.0000,2021.0000,1340.0000,1282.0000,531.0000,-351.0000,-977.0000,-131.0000,-646.0000,-425.0000,1819.0000,1340.0000,-241.0000,568.0000,-535.0000,236.0000,1669.0000,-759.0000,-899.0000
1740.0000,1951.0000,641.0000,613.0000,273.0000,-499.0000,-425.0000,-20.0000,-388.0000,-204.0000,1304.0000,899.0000,-241.0000,310.0000,-57.0000,236.0000,930.0000,-723.0000,-512.0000
1141.0000,1529.0000,52.0000,50.0000,52.0000,-425.0000,200.0000,126.0000,200.0000,-241.0000,825.0000,678.0000,-20.0000,273.0000,531.0000,310.0000,719.0000,-723.0000,-160.0000
437.0000,719.0000,-462.0000,-266.0000,-131.0000,-425.0000,641.0000,200.0000,347.0000,-425.0000,16.0000,236.0000,163.0000,163.0000,825.0000,604.0000,121.0000,-723.0000,-125.0000
-231.0000,261.0000,-756.0000,-583.0000,-167.0000,-315.0000,1046.0000,236.0000,641.0000,-315.0000,-499.0000,89.0000,384.0000,200.0000,1230.0000,494.0000,-301.0000,-512.0000,156.0000
-618.0000,-371.0000,-1014.0000,-688.0000,-278.0000,-351.0000,1046.0000,236.0000,1193.0000,-388.0000,-793.0000,-351.0000,420.0000,-57.0000,1598.0000,862.0000,-512.0000,-442.0000,121.0000
-1075.0000,-1075.0000,-1271.0000,-1005.0000,-278.0000,-462.0000,1193.0000,236.0000,1414.0000,-131.0000,-1161.0000,-719.0000,420.0000,-241.0000,2040.0000,1009.0000,-1322.0000,-301.0000,226.0000
-1357.0000,-1498.0000,-1382.0000,-1357.0000,-241.0000,-388.0000,1304.0000,200.0000,1892.0000,-20.0000,-1198.0000,-867.0000,494.0000,-278.0000,2592.0000,1083.0000,-1463.0000,-231.0000,437.0000
-1568.0000,-2061.0000,-1603.0000,-1568.0000,-351.0000,-462.0000,1267.0000,310.0000,2113.0000,126.0000,-1419.0000,-1235.0000,420.0000,-572.0000,2812.0000,1524.0000,-1850.0000,-266.0000,473.0000
-1815.0000,-2307.0000,-1639.0000,-1885.0000,-315.0000,-388.0000,1524.0000,494.0000,2224.0000,568.0000,-1492.0000,-1308.0000,420.0000,-572.0000,2702.0000,1451.0000,-2167.0000,-55.0000,860.0000
-1815.0000,-2483.0000,-1639.0000,-1991.0000,-425.0000,-315.0000,1451.0000,604.0000,2444.0000,715.0000,-1419.0000,-1455.0000,384.0000,-719.0000,2592.0000,1782.0000,-1920.0000,-19.0000,1036.0000
-1850.0000,-2695.0000,-1639.0000,-2061.0000,-462.0000,-315.0000,1561.0000,752.0000,2334.0000,1083.0000,-1529.0000,-1676.0000,273.0000,-903.0000,2481.0000,1856.0000,-2237.0000,156.0000,1247.0000
-1779.0000,-2554.0000,-1492.0000,-2096.0000,-462.0000,-167.0000,1672.0000,899.0000,2260.0000,1340.0000,-1345.0000,-1639.0000,236.0000,-830.0000,2371.0000,1708.0000,-1920.0000,367.0000,1634.0000
-1603.0000,-2624.0000,-1492.0000,-1955.0000,-609.0000,-131.0000,1524.0000,1009.0000,2150.0000,1377.0000,-1345.0000,-1787.0000,126.0000,-977.0000,2260.0000,1966.0000,-1779.0000,367.0000,1669.0000
-1533.0000,-2413.0000,-1345.0000,-1920.0000,-535.0000,-20.0000,1635.0000,1156.0000,2076.0000,1635.0000,-1271.0000,-1750.0000,89.0000,-940.0000,2187.0000,1635.0000,-1815.0000,578.0000,1881.0000
-1322.0000,-2202.0000,-1198.0000,-1709.0000,-572.0000,89.0000,1414.0000,1193.0000,2003.0000,1524.0000,-1014.0000,-1639.0000,89.0000,-903.0000,1892.0000,1598.0000,-1287.0000,578.0000,1916.0000
-1181.0000,-2096.0000,-1124.0000,-1568.0000,-535.0000,52.0000,1267.0000,1230.0000,1782.0000,1524.0000,-977.0000,-1713.0000,52.0000,-977.0000,1488.0000,1488.0000,-1357.0000,613.0000,1810.0000
-1005.0000,-1779.0000,-867.0000,-1498.0000,-388.0000,163.0000,1193.0000,1193.0000,1414.0000,1488.0000,-683.0000,-1419.0000,163.0000,-756.0000,1304.0000,1009.0000,-1005.0000,754.0000,1881.0000
-688.0000,-1674.0000,-756.0000,-1216.0000,-351.0000,126.0000,788.0000,1083.0000,1046.0000,1230.0000,-499.0000,-1455.0000,200.0000,-830.0000,936.0000,1009.0000,-688.0000,684.0000,1564.0000
-547.0000,-1463.0000,-535.0000,-1146.0000,-167.0000,126.0000,715.0000,1009.0000,531.0000,1193.0000,-388.0000,-1235.0000,273.0000,-719.0000,678.0000,568.0000,-759.0000,860.0000,1493.0000
-301.0000,-1075.0000,-351.0000,-935.0000,-94.0000,200.0000,494.0000,788.0000,347.0000,972.0000,-57.0000,-903.0000,347.0000,-572.0000,494.0000,347.0000,-231.0000,860.0000,1317.0000
-125.0000,-899.0000,-241.0000,-688.0000,16.0000,126.0000,310.0000,531.0000,-57.0000,788.0000,-20.0000,-793.0000,310.0000,-535.0000,236.0000,236.0000,-301.0000,825.0000,930.0000
-55.0000,-477.0000,-20.0000,-547.0000,200.0000,236.0000,273.0000,310.0000,-278.0000,715.0000,200.0000,-388.0000,420.0000,-204.0000,126.0000,-241.0000,-55.0000,895.0000,860.0000
156.0000,-266.0000,89.0000,-266.0000,236.0000,310.0000,-57.0000,126.0000,-388.0000,310.0000,347.0000,-278.0000,420.0000,-94.0000,-57.0000,-204.0000,226.0000,754.0000,473.0000
226.0000,-90.0000,200.0000,-160.0000,347.0000,384.0000,-94.0000,16.0000,-719.0000,200.0000,347.0000,-57.0000,420.0000,126.0000,-204.0000,-499.0000,85.0000,860.0000,297.0000
402.0000,226.0000,420.0000,85.0000,457.0000,568.0000,-241.0000,-94.0000,-756.0000,-20.0000,604.0000,310.0000,457.0000,384.0000,-315.0000,-756.0000,543.0000,860.0000,156.0000
508.0000,297.0000,494.0000,367.0000,457.0000,568.0000,-462.0000,-241.0000,-977.0000,-241.0000,568.0000,310.0000,420.0000,384.0000,-572.0000,-683.0000,473.0000,789.0000,-160.0000
543.0000,578.0000,678.0000,473.0000,604.0000,678.0000,-388.0000,-278.0000,-1087.0000,-278.0000,641.0000,604.0000,457.0000,641.0000,-609.0000,-1087.0000,543.0000,930.0000,-125.0000
719.0000,719.0000,825.0000,754.0000,641.0000,752.0000,-572.0000,-315.0000,-1014.0000,-609.0000,752.0000,641.0000,457.0000,678.0000,-719.0000,-1051.0000,825.0000,895.0000,-371.0000
684.0000,754.0000,936.0000,930.0000,752.0000,788.0000,-572.0000,-351.0000,-1271.0000,-683.0000,678.0000,678.0000,457.0000,715.0000,-830.0000,-1198.0000,578.0000,1036.0000,-442.0000
754.0000,1036.0000,1120.0000,1177.0000,899.0000,936.0000,-609.0000,-388.0000,-1235.0000,-867.0000,825.0000,899.0000,604.0000,936.0000,-830.0000,-1455.0000,930.0000,1141.0000,-477.0000
825.0000,1071.0000,1156.0000,1529.0000,936.0000,972.0000,-756.0000,-425.0000,-1345.0000,-1161.0000,752.0000,899.0000,678.0000,936.0000,-977.0000,-1308.0000,895.0000,1177.0000,-653.0000
789.0000,1353.0000,1377.0000,1705.0000,1193.0000,1120.0000,-572.0000,-388.0000,-1603.0000,-1198.0000,752.0000,1230.0000,899.0000,1230.0000,-1124.0000,-1713.0000,789.0000,1423.0000,-477.0000
825.0000,1599.0000,1598.0000,2057.0000,1451.0000,1304.0000,-683.0000,-388.0000,-1713.0000,-1603.0000,1046.0000,1672.0000,1230.0000,1451.0000,-1455.0000,-1750.0000,1036.0000,1423.0000,-547.0000
754.0000,1775.0000,1929.0000,2303.0000,1966.0000,1340.0000,-793.0000,-388.0000,-2228.0000,-1787.0000,1488.0000,2334.0000,1414.0000,1672.0000,-1971.0000,-1934.0000,649.0000,1353.0000,-759.0000
1036.0000,2338.0000,2592.0000,2620.0000,2444.0000,1561.0000,-1014.0000,-425.0000,-2633.0000,-2081.0000,2518.0000,2481.0000,1377.0000,2113.0000,-2449.0000,-2339.0000,1036.0000,1317.0000,-794.0000
1740.0000,2796.0000,2996.0000,2972.0000,2334.0000,1635.0000,-1492.0000,-425.0000,-3075.0000,-2412.0000,2518.0000,2408.0000,899.0000,1966.0000,-3111.0000,-2265.0000,1705.0000,1247.0000,-1040.0000
2479.0000,2690.0000,2886.0000,2866.0000,2260.0000,1819.0000,-1492.0000,-315.0000,-3148.0000,-2265.0000,2444.0000,2297.0000,457.0000,1708.0000,-3259.0000,-2523.0000,2620.0000,1458.0000,-935.0000
2585.0000,2585.0000,2776.0000,2725.0000,1856.0000,1856.0000,-1529.0000,-241.0000,-3001.0000,-2265.0000,2334.0000,2187.0000,236.0000,1488.0000,-3111.0000,-2375.0000,2831.0000,1141.0000,-1075.0000
2479.0000,2479.0000,2665.0000,2620.0000,1340.0000,1414.0000,-1235.0000,-241.0000,-2891.0000,-1934.0000,2187.0000,2113.0000,126.0000,1340.0000,-2964.0000,-2007.0000,2725.0000,367.0000,-1287.0000
2373.0000,2373.0000,2555.0000,2514.0000,1046.0000,899.0000,-719.0000,-167.0000,-1971.0000,-1345.0000,1745.0000,2040.0000,89.0000,1451.0000,-1860.0000,-1750.0000,2620.0000,-301.0000,-1111.0000
2303.0000,2268.0000,2444.0000,2409.0000,752.0000,384.0000,-535.0000,-20.0000,-1051.0000,-1014.0000,1598.0000,1966.0000,-57.0000,1230.0000,-1124.0000,-867.0000,2514.0000,-688.0000,-1040.0000
2092.0000,2197.0000,1819.0000,2303.0000,678.0000,236.0000,-204.0000,200.0000,-683.0000,-572.0000,1267.0000,1856.0000,-167.0000,1193.0000,-719.0000,-535.0000,2197.0000,-759.0000,-547.0000
1599.0000,2092.0000,1561.0000,2233.0000,457.0000,126.0000,-94.0000,347.0000,-167.0000,-388.0000,1046.0000,1819.0000,-278.0000,1193.0000,-351.0000,-94.0000,1986.0000,-1111.0000,-125.0000
1317.0000,2021.0000,1156.0000,1212.0000,126.0000,-278.0000,-57.0000,494.0000,-20.0000,-20.0000,788.0000,1708.0000,-425.0000,825.0000,-167.0000,457.0000,1458.0000,-1463.0000,-55.0000
1212.0000,1951.0000,715.0000,261.0000,16.0000,-499.0000,163.0000,604.0000,236.0000,384.0000,972.0000,1414.0000,-315.0000,641.0000,126.0000,568.0000,1106.0000,-1392.0000,50.0000
1282.0000,1881.0000,52.0000,-55.0000,-167.0000,-646.0000,89.0000,641.0000,678.0000,273.0000,972.0000,788.0000,-241.0000,200.0000,384.0000,1120.0000,930.0000,-1427.0000,-125.0000
1001.0000,1212.0000,-462.0000,-231.0000,-241.0000,-646.0000,347.0000,715.0000,752.0000,310.0000,568.0000,236.0000,-241.0000,-57.0000,752.0000,1230.0000,261.0000,-1216.0000,121.0000
578.0000,543.0000,-646.0000,-195.0000,-351.0000,-388.0000,604.0000,788.0000,1083.0000,126.0000,163.0000,-57.0000,-241.0000,-20.0000,1156.0000,1304.0000,297.0000,-899.0000,473.0000
85.0000,-160.0000,-646.0000,-125.0000,-499.0000,-241.0000,788.0000,788.0000,1156.0000,-20.0000,-535.0000,-609.0000,-278.0000,-167.0000,1230.0000,1561.0000,-125.0000,-688.0000,437.0000
-371.0000,-618.0000,-609.0000,-371.0000,-535.0000,-131.0000,1120.0000,752.0000,1377.0000,163.0000,-1051.0000,-793.0000,-167.0000,-131.0000,1414.0000,1414.0000,-371.0000,-477.0000,578.0000
-653.0000,-1146.0000,-793.0000,-512.0000,-756.0000,-167.0000,1046.0000,604.0000,1892.0000,236.0000,-1345.0000,-1051.0000,-167.0000,-315.0000,1672.0000,1708.0000,-407.0000,-583.0000,437.0000
-1040.0000,-1639.0000,-1087.0000,-935.0000,-867.0000,-351.0000,1156.0000,531.0000,2187.0000,715.0000,-1750.0000,-1271.0000,-204.0000,-462.0000,2040.0000,1819.0000,-1075.0000,-583.0000,437.0000
-1392.0000,-1779.0000,-1308.0000,-1287.0000,-867.0000,-351.0000,1340.0000,384.0000,2739.0000,1009.0000,-1787.0000,-1198.0000,-131.0000,-425.0000,2518.0000,1819.0000,-1146.0000,-618.0000,578.0000
-1639.0000,-2131.0000,-1603.0000,-1498.0000,-1014.0000,-499.0000,1377.0000,310.0000,2812.0000,1230.0000,-1971.0000,-1382.0000,-204.0000,-646.0000,2776.0000,2260.0000,-1463.0000,-759.0000,508.0000
-1850.0000,-2202.0000,-1750.0000,-1815.0000,-977.0000,-535.0000,1635.0000,310.0000,2702.0000,1635.0000,-1934.0000,-1345.0000,-204.0000,-609.0000,2665.0000,2187.0000,-1779.0000,-688.0000,789.0000
-1850.0000,-2237.0000,-1823.0000,-1850.0000,-1051.0000,-499.0000,1561.0000,236.0000,2555.0000,1708.0000,-1750.0000,-1345.0000,-241.0000,-609.0000,2555.0000,2408.0000,-1533.0000,-759.0000,895.0000
-1850.0000,-2343.0000,-1934.0000,-1920.0000,-1087.0000,-499.0000,1561.0000,310.0000,2481.0000,1966.0000,-1787.0000,-1455.0000,-351.0000,-719.0000,2444.0000,2444.0000,-1850.0000,-653.0000,1001.0000
-1815.0000,-2131.0000,-1860.0000,-1991.0000,-1051.0000,-351.0000,1598.0000,384.0000,2371.0000,2113.0000,-1566.0000,-1308.0000,-388.0000,-646.0000,2334.0000,2224.0000,-1639.0000,-477.0000,1282.0000
-1639.0000,-2131.0000,-1897.0000,-1850.0000,-1124.0000,-315.0000,1377.0000,494.0000,2260.0000,2076.0000,-1492.0000,-1419.0000,-462.0000,-756.0000,2260.0000,2260.0000,-1568.0000,-477.0000,1317.0000
-1639.0000,-2026.0000,-1823.0000,-1885.0000,-1014.0000,-204.0000,1488.0000,752.0000,2187.0000,2187.0000,-1419.0000,-1382.0000,-388.0000,-646.0000,2150.0000,2040.0000,-1709.0000,-266.0000,1564.0000
-1498.0000,-1815.0000,-1750.0000,-1709.0000,-1014.0000,-57.0000,1377.0000,862.0000,2113.0000,2003.0000,-1161.0000,-1198.0000,-278.0000,-462.0000,2076.0000,1892.0000,-1251.0000,-231.0000,1669.0000
-1392.0000,-1709.0000,-1676.0000,-1533.0000,-940.0000,16.0000,1304.0000,936.0000,2040.0000,1856.0000,-1161.0000,-1161.0000,-204.0000,-425.0000,1672.0000,1745.0000,-1392.0000,-160.0000,1634.0000
-1287.0000,-1322.0000,-1455.0000,-1427.0000,-719.0000,273.0000,1340.0000,972.0000,1966.0000,1672.0000,-867.0000,-756.0000,-20.0000,-94.0000,1377.0000,1193.0000,-1075.0000,85.0000,1740.0000
-970.0000,-1075.0000,-1271.0000,-1075.0000,-609.0000,384.0000,1009.0000,936.0000,1340.0000,1156.0000,-646.0000,-646.0000,89.0000,-20.0000,936.0000,1083.0000,-759.0000,156.0000,1423.0000
-794.0000,-794.0000,-1014.0000,-935.0000,-351.0000,531.0000,899.0000,899.0000,494.0000,936.0000,-535.0000,-388.0000,236.0000,126.0000,531.0000,531.0000,-794.0000,402.0000,1247.0000
-512.0000,-371.0000,-756.0000,-653.0000,-167.0000,678.0000,604.0000,715.0000,163.0000,457.0000,-131.0000,-57.0000,420.0000,273.0000,273.0000,89.0000,-266.0000,508.0000,965.0000
-336.0000,-266.0000,-609.0000,-371.0000,-57.0000,641.0000,236.0000,457.0000,-315.0000,16.0000,-57.0000,-20.0000,494.0000,200.0000,-20.0000,-94.0000,-301.0000,578.0000,543.0000
-195.0000,121.0000,-351.0000,-231.0000,200.0000,678.0000,200.0000,236.0000,-609.0000,-167.0000,163.0000,347.0000,641.0000,384.0000,-131.0000,-683.0000,-125.0000,825.0000,402.0000
50.0000,367.0000,-204.0000,85.0000,273.0000,678.0000,-131.0000,16.0000,-719.0000,-535.0000,384.0000,420.0000,641.0000,347.0000,-315.0000,-719.0000,226.0000,825.0000,-19.0000
121.0000,508.0000,-57.0000,191.0000,457.0000,641.0000,-241.0000,-204.0000,-1087.0000,-609.0000,420.0000,568.0000,641.0000,384.0000,-499.0000,-1051.0000,15.0000,965.0000,-266.0000
261.0000,825.0000,200.0000,402.0000,604.0000,715.0000,-425.0000,-425.0000,-1087.0000,-830.0000,715.0000,788.0000,715.0000,494.0000,-572.0000,-1345.0000,473.0000,1001.0000,-477.0000
437.0000,895.0000,310.0000,649.0000,641.0000,604.0000,-756.0000,-646.0000,-1308.0000,-1051.0000,752.0000,752.0000,641.0000,347.0000,-793.0000,-1235.0000,437.0000,895.0000,-864.0000
543.0000,1141.0000,531.0000,754.0000,788.0000,604.0000,-756.0000,-830.0000,-1492.0000,-1051.0000,862.0000,972.0000,678.0000,457.0000,-830.0000,-1603.0000,473.0000,1071.0000,-935.0000
719.0000,1282.0000,678.0000,1036.0000,825.0000,568.0000,-1051.0000,-1051.0000,-1455.0000,-1382.0000,1009.0000,1009.0000,641.0000,347.0000,-977.0000,-1492.0000,860.0000,1036.0000,-1216.0000
754.0000,1423.0000,899.0000,1282.0000,936.0000,494.0000,-1087.0000,-1198.0000,-1750.0000,-1455.0000,972.0000,936.0000,604.0000,273.0000,-1161.0000,-1639.0000,649.0000,1141.0000,-1322.0000
895.0000,1775.0000,1267.0000,1564.0000,1120.0000,678.0000,-1235.0000,-1271.0000,-1823.0000,-1529.0000,1267.0000,1193.0000,678.0000,457.0000,-1382.0000,-1934.0000,1071.0000,1282.0000,-1287.0000
1106.0000,1986.0000,1635.0000,2021.0000,1267.0000,678.0000,-1603.0000,-1382.0000,-2118.0000,-1750.0000,1598.0000,1267.0000,678.0000,457.0000,-1897.0000,-1823.0000,1141.0000,1247.0000,-1603.0000
1317.0000,2549.0000,2297.0000,2303.0000,1708.0000,752.0000,-1713.0000,-1382.0000,-2596.0000,-1787.0000,2150.0000,1929.0000,788.0000,825.0000,-2412.0000,-2228.0000,1141.0000,1317.0000,-1639.0000
1740.0000,2514.0000,2923.0000,2690.0000,2076.0000,862.0000,-2081.0000,-1382.0000,-2854.0000,-2118.0000,2555.0000,2150.0000,788.0000,1267.0000,-2891.0000,-2265.0000,1529.0000,1141.0000,-1639.0000
2021.0000,2409.0000,3033.0000,2761.0000,2187.0000,862.0000,-2155.0000,-1198.0000,-3148.0000,-2118.0000,2444.0000,2040.0000,531.0000,1414.0000,-3222.0000,-2265.0000,1247.0000,1177.0000,-1322.0000
2092.0000,2338.0000,2923.0000,2655.0000,2076.0000,1156.0000,-1787.0000,-756.0000,-3001.0000,-1750.0000,2334.0000,1966.0000,310.0000,1304.0000,-3111.0000,-2375.0000,1634.0000,1529.0000,-653.0000
2197.0000,2233.0000,2812.0000,2549.0000,1598.0000,1377.0000,-1529.0000,-204.0000,-2670.0000,-1455.0000,2260.0000,1708.0000,163.0000,678.0000,-3038.0000,-1860.0000,2268.0000,1705.0000,-618.0000
2373.0000,2162.0000,2702.0000,2444.0000,1377.0000,1340.0000,-1198.0000,126.0000,-2596.0000,-1198.0000,2187.0000,604.0000,89.0000,568.0000,-2927.0000,-1787.0000,2620.0000,1529.0000,-794.0000
2338.0000,2057.0000,2592.0000,2338.0000,1046.0000,936.0000,-1271.0000,89.0000,-2118.0000,-1271.0000,2076.0000,899.0000,-94.0000,678.0000,-2780.0000,-1455.0000,2514.0000,684.0000,-1146.0000
2233.0000,1986.0000,2481.0000,2268.0000,568.0000,200.0000,-1124.0000,52.0000,-1529.0000,-940.0000,1488.0000,1083.0000,-462.0000,494.0000,-2191.0000,-1014.0000,2409.0000,-125.0000,-1005.0000
2162.0000,1916.0000,2076.0000,2162.0000,236.0000,-94.0000,-535.0000,200.0000,-756.0000,-351.0000,1120.0000,1340.0000,-535.0000,641.0000,-1382.0000,-903.0000,2303.0000,-407.0000,-301.0000
1845.0000,1845.0000,1377.0000,2092.0000,16.0000,-241.0000,-315.0000,347.0000,-241.0000,-204.0000,752.0000,1230.0000,-499.0000,604.0000,-940.0000,-315.0000,2021.0000,-512.0000,-90.0000
1212.0000,1810.0000,1083.0000,1141.0000,-20.0000,-425.0000,89.0000,457.0000,-20.0000,163.0000,347.0000,1083.0000,-425.0000,457.0000,-425.0000,-241.0000,1141.0000,-547.0000,15.0000
965.0000,1705.0000,568.0000,297.0000,-278.0000,-719.0000,236.0000,420.0000,641.0000,420.0000,347.0000,862.0000,-462.0000,200.0000,163.0000,52.0000,1177.0000,-864.0000,50.0000
825.0000,1353.0000,-167.0000,-266.0000,-646.0000,-1124.0000,126.0000,384.0000,936.0000,715.0000,200.0000,273.0000,-683.0000,-278.0000,420.0000,531.0000,719.0000,-1111.0000,15.0000
684.0000,649.0000,-535.0000,-653.0000,-609.0000,-1087.0000,236.0000,457.0000,936.0000,972.0000,126.0000,-57.0000,-609.0000,-351.0000,568.0000,531.0000,402.0000,-970.0000,367.0000
508.0000,-55.0000,-646.0000,-653.0000,-535.0000,-940.0000,163.0000,531.0000,899.0000,752.0000,-57.0000,-609.0000,-388.0000,-572.0000,641.0000,936.0000,156.0000,-935.0000,332.0000
-19.0000,-688.0000,-683.0000,-794.0000,-351.0000,-756.0000,494.0000,604.0000,752.0000,788.0000,-535.0000,-977.0000,-94.0000,-609.0000,862.0000,899.0000,-618.0000,-723.0000,402.0000
-583.0000,-1005.0000,-683.0000,-829.0000,-315.0000,-499.0000,825.0000,531.0000,1156.0000,788.0000,-903.0000,-1087.0000,52.0000,-499.0000,1340.0000,825.0000,-618.0000,-618.0000,543.0000
-1005.0000,-1603.0000,-903.0000,-899.0000,-535.0000,-499.0000,936.0000,494.0000,1524.0000,825.0000,-1529.0000,-1455.0000,-20.0000,-609.0000,1635.0000,1120.0000,-970.0000,-653.0000,508.0000
-1427.0000,-1920.0000,-1014.0000,-1181.0000,-572.0000,-388.0000,1267.0000,531.0000,1856.0000,1083.0000,-1897.0000,-1455.0000,89.0000,-425.0000,2003.0000,972.0000,-1287.0000,-477.0000,754.0000
-1603.0000,-2202.0000,-1161.0000,-1322.0000,-683.0000,-315.0000,1267.0000,494.0000,2297.0000,1009.0000,-1971.0000,-1529.0000,126.0000,-462.0000,2224.0000,1230.0000,-1251.0000,-477.0000,649.0000
-1815.0000,-2519.0000,-1382.0000,-1498.0000,-719.0000,-315.0000,1451.0000,568.0000,2371.0000,1156.0000,-2191.0000,-1676.0000,163.0000,-499.0000,2555.0000,1340.0000,-1815.0000,-371.0000,684.0000
-1955.0000,-2483.0000,-1455.0000,-1639.0000,-719.0000,-204.0000,1635.0000,641.0000,2702.0000,1267.0000,-2118.0000,-1529.0000,273.0000,-388.0000,2923.0000,1267.0000,-1744.0000,-266.0000,860.0000
-1955.0000,-2624.0000,-1639.0000,-1603.0000,-830.0000,-241.0000,1598.0000,678.0000,2776.0000,1230.0000,-2118.0000,-1566.0000,200.0000,-535.0000,2812.0000,1598.0000,-1885.0000,-266.0000,860.0000
-2026.0000,-2483.0000,-1603.0000,-1709.0000,-719.0000,-131.0000,1819.0000,825.0000,2665.0000,1524.0000,-2044.0000,-1382.0000,163.0000,-462.0000,2665.0000,1377.0000,-2061.0000,-55.0000,1212.0000
-1885.0000,-2307.0000,-1603.0000,-1639.0000,-793.0000,-20.0000,1745.0000,862.0000,2555.0000,1488.0000,-1823.0000,-1235.0000,89.0000,-425.0000,2555.0000,1488.0000,-1674.0000,-90.0000,1388.0000
-1850.0000,-2307.0000,-1639.0000,-1639.0000,-830.0000,-20.0000,1708.0000,972.0000,2444.0000,1635.0000,-1823.0000,-1235.0000,-57.0000,-535.0000,2444.0000,1524.0000,-1885.0000,-19.0000,1493.0000
-1744.0000,-1991.0000,-1492.0000,-1674.0000,-719.0000,89.0000,1745.0000,1120.0000,2334.0000,1708.0000,-1455.0000,-977.0000,-20.0000,-388.0000,2371.0000,1193.0000,-1603.0000,156.0000,1740.0000
-1498.0000,-1920.0000,-1455.0000,-1498.0000,-756.0000,52.0000,1414.0000,1156.0000,2150.0000,1524.0000,-1235.0000,-1051.0000,-94.0000,-499.0000,2260.0000,1340.0000,-1357.0000,121.0000,1599.0000
-1357.0000,-1744.0000,-1271.0000,-1498.0000,-609.0000,89.0000,1304.0000,1267.0000,1635.0000,1561.0000,-1014.0000,-867.0000,-57.0000,-351.0000,2076.0000,972.0000,-1392.0000,297.0000,1669.0000
-1040.0000,-1392.0000,-1087.0000,-1287.0000,-462.0000,236.0000,972.0000,1267.0000,1340.0000,1267.0000,-609.0000,-609.0000,16.0000,-204.0000,1598.0000,788.0000,-829.0000,332.0000,1599.0000
-794.0000,-1216.0000,-1014.0000,-1111.0000,-425.0000,273.0000,604.0000,1230.0000,752.0000,1009.0000,-499.0000,-535.0000,16.0000,-167.0000,1120.0000,641.0000,-864.0000,402.0000,1423.0000
-618.0000,-794.0000,-756.0000,-970.0000,-204.0000,457.0000,494.0000,1120.0000,384.0000,788.0000,-167.0000,-131.0000,126.0000,126.0000,862.0000,52.0000,-512.0000,578.0000,1423.0000
-301.0000,-547.0000,-646.0000,-653.0000,-131.0000,494.0000,89.0000,862.0000,126.0000,420.0000,52.0000,-20.0000,163.0000,126.0000,531.0000,16.0000,-160.0000,543.0000,1036.0000
-160.0000,-231.0000,-499.0000,-512.0000,16.0000,531.0000,16.0000,678.0000,-241.0000,347.0000,126.0000,200.0000,236.0000,273.0000,347.0000,-425.0000,-301.0000,684.0000,895.0000
85.0000,226.0000,-315.0000,-301.0000,200.0000,641.0000,-94.0000,494.0000,-278.0000,126.0000,494.0000,531.0000,384.0000,494.0000,273.0000,-683.0000,191.0000,719.0000,684.0000
297.0000,367.0000,-241.0000,-19.0000,236.0000,604.0000,-315.0000,310.0000,-499.0000,-57.0000,494.0000,568.0000,384.0000,457.0000,89.0000,-683.0000,156.0000,719.0000,297.0000
367.0000,684.0000,16.0000,85.0000,457.0000,715.0000,-278.0000,163.0000,-683.0000,-94.0000,678.0000,862.0000,568.0000,678.0000,52.0000,-1051.0000,297.0000,930.0000,226.0000
613.0000,825.0000,163.0000,402.0000,531.0000,752.0000,-499.0000,-20.0000,-719.0000,-425.0000,825.0000,936.0000,604.0000,715.0000,-57.0000,-867.0000,649.0000,895.0000,-90.0000
649.0000,965.0000,310.0000,613.0000,678.0000,788.0000,-462.0000,-131.0000,-977.0000,-351.0000,752.0000,1009.0000,641.0000,752.0000,-167.0000,-977.0000,437.0000,1071.0000,-231.0000
754.0000,1353.0000,568.0000,860.0000,862.0000,972.0000,-425.0000,-241.0000,-867.0000,-425.0000,972.0000,1230.0000,788.0000,936.0000,-204.0000,-1087.0000,825.0000,1212.0000,-231.0000
895.0000,1388.0000,678.0000,1177.0000,862.0000,972.0000,-535.0000,-315.0000,-1014.0000,-609.0000,899.0000,1120.0000,825.0000,825.0000,-388.0000,-793.0000,754.0000,1282.0000,-407.0000
860.0000,1599.0000,899.0000,1317.0000,1046.0000,1083.0000,-278.0000,-278.0000,-1124.0000,-572.0000,936.0000,1304.0000,936.0000,1009.0000,-388.0000,-1087.0000,719.0000,1529.0000,-231.0000
1036.0000,1740.0000,1120.0000,1669.0000,1083.0000,1230.0000,-315.0000,-241.0000,-977.0000,-756.0000,1046.0000,1340.0000,972.0000,1120.0000,-499.0000,-867.0000,1141.0000,1529.0000,-266.0000
1036.0000,1881.0000,1340.0000,1916.0000,1156.0000,1340.0000,-204.0000,-131.0000,-1124.0000,-683.0000,899.0000,1267.0000,1009.0000,1156.0000,-683.0000,-977.0000,930.0000,1599.0000,-231.0000
1141.0000,2338.0000,1745.0000,2162.0000,1377.0000,1561.0000,-131.0000,-57.0000,-1124.0000,-756.0000,1156.0000,1672.0000,1193.0000,1524.0000,-830.0000,-1271.0000,1353.0000,1740.0000,-55.0000
1423.0000,2479.0000,2113.0000,2620.0000,1598.0000,1598.0000,-351.0000,-20.0000,-1382.0000,-1124.0000,1451.0000,2076.0000,1193.0000,1672.0000,-1271.0000,-1161.0000,1529.0000,1599.0000,-231.0000
1564.0000,2373.0000,2628.0000,2690.0000,1966.0000,1708.0000,-388.0000,52.0000,-1860.0000,-1198.0000,2040.0000,2003.0000,1193.0000,2076.0000,-1676.0000,-1566.0000,1458.0000,1599.0000,-19.0000
1951.0000,2303.0000,2923.0000,2585.0000,2224.0000,1745.0000,-683.0000,126.0000,-1934.0000,-1345.0000,2518.0000,1929.0000,1083.0000,2003.0000,-1971.0000,-1529.0000,1810.0000,1423.0000,50.0000
2162.0000,2197.0000,2812.0000,2479.0000,2187.0000,1708.0000,-756.0000,347.0000,-2118.0000,-1051.0000,2408.0000,1856.0000,825.0000,1929.0000,-2191.0000,-1382.0000,1564.0000,1564.0000,15.0000
2303.0000,2127.0000,2665.0000,2373.0000,2076.0000,1745.0000,-683.0000,568.0000,-2044.0000,-683.0000,2297.0000,1782.0000,825.0000,1782.0000,-2155.0000,-1419.0000,2197.0000,1740.0000,-19.0000
2303.0000,2057.0000,2592.0000,2268.0000,2003.0000,1672.0000,-903.0000,641.0000,-1934.0000,-756.0000,2224.0000,1708.0000,641.0000,1377.0000,-2302.0000,-940.0000,2514.0000,1669.0000,-547.0000
2197.0000,1951.0000,2481.0000,2197.0000,1929.0000,1635.0000,-830.0000,604.0000,-1934.0000,-609.0000,2150.0000,1672.0000,384.0000,1340.0000,-2265.0000,-903.0000,2409.0000,1317.0000,-794.0000
2127.0000,1916.0000,2371.0000,2092.0000,1451.0000,1156.0000,-793.0000,531.0000,-1308.0000,-425.0000,2076.0000,1598.0000,89.0000,1120.0000,-1860.0000,-499.0000,2303.0000,613.0000,-829.0000
2057.0000,1845.0000,2297.0000,2021.0000,862.0000,420.0000,-499.0000,604.0000,-683.0000,-57.0000,2003.0000,1488.0000,-167.0000,678.0000,-1235.0000,126.0000,2233.0000,-160.0000,-653.0000
1986.0000,1775.0000,2224.0000,1951.0000,531.0000,126.0000,89.0000,678.0000,-20.0000,384.0000,1929.0000,1340.0000,-167.0000,788.0000,-499.0000,200.0000,2127.0000,-512.0000,-90.0000
1916.0000,1705.0000,1819.0000,1881.0000,200.0000,-94.0000,236.0000,715.0000,531.0000,457.0000,1488.0000,1083.0000,-241.0000,568.0000,-131.0000,715.0000,2057.0000,-794.0000,-55.0000
1845.0000,1669.0000,1046.0000,1247.0000,-57.0000,-388.0000,568.0000,715.0000,715.0000,752.0000,788.0000,752.0000,-315.0000,236.0000,236.0000,715.0000,1599.0000,-829.0000,15.0000
1493.0000,1599.0000,641.0000,367.0000,-351.0000,-609.0000,715.0000,678.0000,1230.0000,825.0000,604.0000,494.0000,-351.0000,-94.0000,678.0000,788.0000,1423.0000,-1005.0000,156.0000
1106.0000,1423.0000,126.0000,-160.0000,-683.0000,-903.0000,678.0000,715.0000,1304.0000,825.0000,273.0000,-94.0000,-388.0000,-535.0000,862.0000,1120.0000,825.0000,-1146.0000,156.0000
789.0000,613.0000,-94.0000,-618.0000,-609.0000,-830.0000,899.0000,862.0000,1193.0000,899.0000,200.0000,-388.0000,-167.0000,-572.0000,1083.0000,825.0000,367.0000,-1005.0000,367.0000
613.0000,-125.0000,-388.0000,-759.0000,-535.0000,-793.0000,752.0000,936.0000,1340.0000,715.0000,126.0000,-756.0000,52.0000,-719.0000,1304.0000,1083.0000,191.0000,-1251.0000,332.0000
-19.0000,-794.0000,-756.0000,-1075.0000,-499.0000,-793.0000,1009.0000,1009.0000,1451.0000,936.0000,-388.0000,-1161.0000,163.0000,-756.0000,1708.0000,1156.0000,-688.0000,-1392.0000,613.0000
-653.0000,-1251.0000,-1014.0000,-1357.0000,-572.0000,-683.0000,1377.0000,972.0000,1966.0000,1156.0000,-683.0000,-1235.0000,236.0000,-719.0000,2187.0000,1377.0000,-759.0000,-1392.0000,1106.0000
-1005.0000,-1920.0000,-1124.0000,-1463.0000,-683.0000,-683.0000,1488.0000,899.0000,2260.0000,1414.0000,-1161.0000,-1529.0000,200.0000,-867.0000,2297.0000,2040.0000,-1040.0000,-1287.0000,1247.0000
-1287.0000,-2202.0000,-830.0000,-1568.0000,-425.0000,-535.0000,1892.0000,899.0000,2444.0000,1892.0000,-1382.0000,-1676.0000,347.0000,-793.0000,2481.0000,2150.0000,-1251.0000,-829.0000,1564.0000
-1287.0000,-2413.0000,-646.0000,-1463.0000,-278.0000,-425.0000,1892.0000,899.0000,2628.0000,1929.0000,-1345.0000,-1860.0000,494.0000,-903.0000,2444.0000,2702.0000,-1040.0000,-618.0000,1529.0000
-1357.0000,-2730.0000,-572.0000,-1463.0000,-204.0000,-499.0000,2040.0000,862.0000,2518.0000,2040.0000,-1639.0000,-2081.0000,568.0000,-1051.0000,2334.0000,2923.0000,-1463.0000,-442.0000,1493.0000
-1392.0000,-2659.0000,-499.0000,-1463.0000,-94.0000,-425.0000,2113.0000,788.0000,2444.0000,2040.0000,-1492.0000,-1823.0000,715.0000,-977.0000,2260.0000,2812.0000,-1322.0000,-195.0000,1599.0000
-1287.0000,-2695.0000,-572.0000,-1322.0000,-131.0000,-572.0000,2040.0000,641.0000,2334.0000,1782.0000,-1419.0000,-1860.0000,752.0000,-1161.0000,2187.0000,2702.0000,-1392.0000,-231.0000,1388.0000
-1392.0000,-2589.0000,-535.0000,-1463.0000,-20.0000,-609.0000,1966.0000,568.0000,2260.0000,1782.0000,-1308.0000,-1676.0000,825.0000,-1051.0000,2076.0000,2592.0000,-1639.0000,-90.0000,1493.0000
-1322.0000,-2448.0000,-535.0000,-1427.0000,16.0000,-535.0000,1892.0000,420.0000,2150.0000,1672.0000,-1087.0000,-1492.0000,825.0000,-940.0000,2003.0000,2481.0000,-1251.0000,-90.0000,1458.0000
-1357.0000,-2378.0000,-609.0000,-1357.0000,126.0000,-535.0000,1856.0000,384.0000,2076.0000,1819.0000,-1235.0000,-1455.0000,715.0000,-903.0000,1929.0000,2371.0000,-1498.0000,85.0000,1388.0000
-1357.0000,-1991.0000,-572.0000,-1357.0000,347.0000,-315.0000,1782.0000,384.0000,2003.0000,1745.0000,-1087.0000,-1087.0000,678.0000,-756.0000,1856.0000,2297.0000,-1287.0000,508.0000,1493.0000
-1181.0000,-1815.0000,-646.0000,-1146.0000,236.0000,-388.0000,1414.0000,273.0000,1966.0000,1193.0000,-903.0000,-1051.0000,457.0000,-903.0000,1782.0000,2187.0000,-1075.0000,473.0000,1212.0000
-1181.0000,-1603.0000,-609.0000,-1075.0000,163.0000,-388.0000,1083.0000,236.0000,1708.0000,972.0000,-646.0000,-903.0000,273.0000,-756.0000,1745.0000,2113.0000,-1111.0000,508.0000,1212.0000
-970.0000,-1357.0000,-572.0000,-970.0000,16.0000,-278.0000,715.0000,236.0000,899.0000,604.0000,-241.0000,-719.0000,200.0000,-572.0000,1635.0000,2040.0000,-547.0000,473.0000,1212.0000
-829.0000,-1287.0000,-646.0000,-935.0000,-131.0000,-278.0000,420.0000,310.0000,163.0000,494.0000,-351.0000,-719.0000,-20.0000,-462.0000,715.0000,1966.0000,-583.0000,543.0000,1001.0000
-723.0000,-759.0000,-609.0000,-935.0000,-94.0000,-20.0000,200.0000,310.0000,-351.0000,457.0000,-351.0000,-278.0000,-204.0000,-131.0000,52.0000,1892.0000,-583.0000,754.0000,895.0000
-512.0000,-477.0000,-793.0000,-547.0000,-204.0000,89.0000,-315.0000,236.0000,-683.0000,236.0000,-315.0000,-131.0000,-462.0000,-57.0000,-462.0000,1856.0000,-371.0000,649.0000,473.0000
-583.0000,-266.0000,-940.0000,-407.0000,-94.0000,200.0000,-425.0000,163.0000,-1087.0000,384.0000,-388.0000,16.0000,-535.0000,163.0000,-793.0000,1782.0000,-688.0000,789.0000,332.0000
-547.0000,121.0000,-903.0000,-195.0000,-20.0000,384.0000,-499.0000,52.0000,-1014.0000,89.0000,-94.0000,347.0000,-462.0000,310.0000,-903.0000,1708.0000,-301.0000,789.0000,226.0000
-442.0000,191.0000,-940.0000,-55.0000,-241.0000,347.0000,-646.0000,-94.0000,-1161.0000,-388.0000,-131.0000,347.0000,-462.0000,236.0000,-1198.0000,1672.0000,-407.0000,719.0000,-125.0000
-442.0000,437.0000,-793.0000,-19.0000,-278.0000,494.0000,-572.0000,-131.0000,-1382.0000,-499.0000,-94.0000,568.0000,-388.0000,384.0000,-1345.0000,1598.0000,-442.0000,895.0000,-160.0000
-266.0000,508.0000,-830.0000,226.0000,-462.0000,568.0000,-940.0000,-167.0000,-1419.0000,-756.0000,-57.0000,604.0000,-462.0000,310.0000,-1566.0000,1561.0000,-231.0000,825.0000,-477.0000
-336.0000,578.0000,-903.0000,297.0000,-499.0000,641.0000,-1051.0000,-94.0000,-1639.0000,-756.0000,-241.0000,604.0000,-535.0000,420.0000,-1713.0000,1414.0000,-583.0000,860.0000,-583.0000
-336.0000,789.0000,-719.0000,332.0000,-462.0000,825.0000,-1014.0000,-20.0000,-1455.0000,-867.0000,-57.0000,752.0000,-388.0000,641.0000,-1676.0000,126.0000,-231.0000,895.0000,-547.0000
-231.0000,719.0000,-683.0000,402.0000,-351.0000,715.0000,-1161.0000,-94.0000,-1492.0000,-756.0000,-57.0000,604.0000,-351.0000,568.0000,-1823.0000,-204.0000,-407.0000,860.0000,-794.0000
-301.0000,930.0000,-535.0000,473.0000,-57.0000,788.0000,-1014.0000,-94.0000,-1603.0000,-609.0000,-57.0000,825.0000,-278.0000,641.0000,-1860.0000,-1787.0000,-759.0000,1106.0000,-688.0000
-160.0000,1036.0000,-425.0000,684.0000,-131.0000,825.0000,-1051.0000,-94.0000,-1308.0000,-977.0000,89.0000,899.0000,-204.0000,420.0000,-1860.0000,-2523.0000,-477.0000,860.0000,-688.0000
-55.0000,825.0000,-278.0000,578.0000,-204.0000,568.0000,-903.0000,-131.0000,-1271.0000,-756.0000,52.0000,641.0000,-167.0000,126.0000,-1787.0000,-2007.0000,-583.0000,613.0000,-583.0000
85.0000,895.0000,52.0000,543.0000,89.0000,604.0000,-719.0000,-167.0000,-1124.0000,-499.0000,347.0000,788.0000,-20.0000,347.0000,-1639.0000,-2633.0000,-19.0000,789.0000,-407.0000
297.0000,1071.0000,236.0000,1071.0000,236.0000,752.0000,-867.0000,-131.0000,-1087.0000,-1051.0000,384.0000,899.0000,-94.0000,862.0000,-1750.0000,-3958.0000,332.0000,930.0000,-512.0000
367.0000,1564.0000,604.0000,1423.0000,310.0000,1009.0000,-646.0000,-57.0000,-1124.0000,-1235.0000,494.0000,1414.0000,52.0000,1488.0000,-1676.0000,-3811.0000,226.0000,1036.0000,-301.0000
684.0000,2021.0000,1046.0000,1705.0000,457.0000,1120.0000,-646.0000,-167.0000,-867.0000,-1161.0000,862.0000,1892.0000,236.0000,1561.0000,-1603.0000,-3663.0000,719.0000,754.0000,-231.0000
789.0000,2057.0000,1304.0000,1775.0000,752.0000,972.0000,-683.0000,-315.0000,-903.0000,-977.0000,1009.0000,2076.0000,347.0000,1782.0000,-1566.0000,-3516.0000,578.0000,578.0000,-160.0000
860.0000,2303.0000,1635.0000,1845.0000,1230.0000,1046.0000,-499.0000,-241.0000,-683.0000,-903.0000,1524.0000,2003.0000,531.0000,2040.0000,-1271.0000,-3332.0000,860.0000,578.0000,191.0000
1212.0000,2338.0000,1819.0000,2127.0000,1377.0000,1009.0000,-646.0000,-94.0000,-351.0000,-977.0000,2076.0000,1929.0000,457.0000,1966.0000,-1124.0000,-3185.0000,1282.0000,297.0000,121.0000
1599.0000,2233.0000,2187.0000,2373.0000,1451.0000,1046.0000,-535.0000,52.0000,-278.0000,-572.0000,2334.0000,1856.0000,310.0000,1561.0000,-1124.0000,-3038.0000,1881.0000,402.0000,50.0000
2303.0000,2162.0000,2702.0000,2338.0000,1414.0000,1120.0000,-683.0000,52.0000,-57.0000,-535.0000,2297.0000,1782.0000,236.0000,972.0000,-1308.0000,-2927.0000,2831.0000,297.0000,-266.0000
2409.0000,2092.0000,2592.0000,2233.0000,1193.0000,715.0000,-830.0000,-131.0000,-131.0000,-462.0000,2224.0000,1708.0000,52.0000,678.0000,-1492.0000,-1713.0000,2690.0000,-125.0000,-688.0000
2338.0000,1986.0000,2518.0000,2162.0000,1083.0000,310.0000,-609.0000,-278.0000,-20.0000,-94.0000,2150.0000,1377.0000,52.0000,678.0000,-1235.0000,-977.0000,2585.0000,-442.0000,-829.0000
2233.0000,1916.0000,2408.0000,2057.0000,862.0000,-241.0000,-683.0000,-315.0000,236.0000,-20.0000,2040.0000,972.0000,-20.0000,236.0000,-867.0000,-646.0000,2479.0000,-1005.0000,-1181.0000
2127.0000,1845.0000,1892.0000,1740.0000,752.0000,-683.0000,-462.0000,-278.0000,273.0000,420.0000,1966.0000,862.0000,-57.0000,126.0000,-462.0000,-388.0000,2373.0000,-1392.0000,-899.0000
2057.0000,1810.0000,1414.0000,1071.0000,641.0000,-830.0000,-131.0000,-315.0000,641.0000,678.0000,1892.0000,936.0000,-20.0000,200.0000,-167.0000,-20.0000,2303.0000,-1568.0000,-407.0000
1986.0000,1740.0000,1304.0000,965.0000,531.0000,-1051.0000,16.0000,-351.0000,494.0000,494.0000,1856.0000,678.0000,52.0000,-20.0000,-131.0000,236.0000,2197.0000,-1427.0000,-477.0000
1916.0000,1669.0000,1561.0000,719.0000,678.0000,-1051.0000,310.0000,-388.0000,310.0000,347.0000,1672.0000,604.0000,310.0000,-131.0000,163.0000,-315.0000,2127.0000,-1111.0000,-547.0000
1845.0000,1634.0000,1340.0000,437.0000,531.0000,-1271.0000,200.0000,-462.0000,568.0000,163.0000,1561.0000,200.0000,384.0000,-609.0000,531.0000,-20.0000,2021.0000,-1392.0000,-653.0000
1775.0000,1141.0000,641.0000,-195.0000,236.0000,-1603.0000,384.0000,-462.0000,825.0000,604.0000,1230.0000,-351.0000,273.0000,-1014.0000,972.0000,420.0000,1493.0000,-1709.0000,-231.0000
1740.0000,332.0000,-20.0000,-794.0000,89.0000,-1639.0000,678.0000,-351.0000,1304.0000,862.0000,1046.0000,-646.0000,347.0000,-1087.0000,1304.0000,604.0000,930.0000,-1709.0000,261.0000
1106.0000,-512.0000,-462.0000,-1040.0000,16.0000,-1529.0000,678.0000,-131.0000,1304.0000,678.0000,641.0000,-1198.0000,457.0000,-1235.0000,1304.0000,788.0000,226.0000,-1498.0000,226.0000
437.0000,-1075.0000,-388.0000,-1251.0000,200.0000,-1198.0000,972.0000,126.0000,1304.0000,752.0000,457.0000,-1455.0000,641.0000,-1087.0000,1451.0000,420.0000,-653.0000,-1005.0000,332.0000
50.0000,-1674.0000,-425.0000,-1216.0000,200.0000,-1014.0000,1046.0000,273.0000,1819.0000,715.0000,420.0000,-1823.0000,641.0000,-1161.0000,1782.0000,604.0000,-970.0000,-970.0000,332.0000
-512.0000,-2413.0000,-683.0000,-1322.0000,16.0000,-1014.0000,1304.0000,457.0000,2150.0000,1120.0000,-131.0000,-2265.0000,494.0000,-1271.0000,2187.0000,1009.0000,-1709.0000,-935.0000,543.0000
-935.0000,-2695.0000,-756.0000,-1463.0000,-131.0000,-903.0000,1561.0000,604.0000,2408.0000,1414.0000,-462.0000,-2265.0000,531.0000,-1161.0000,2739.0000,1230.0000,-1674.0000,-794.0000,719.0000
-1005.0000,-2976.0000,-756.0000,-1392.0000,-388.0000,-940.0000,1414.0000,604.0000,2334.0000,1377.0000,-940.0000,-2412.0000,457.0000,-1308.0000,2702.0000,1819.0000,-1603.0000,-759.0000,437.0000
-1111.0000,-2941.0000,-572.0000,-1463.0000,-425.0000,-867.0000,1524.0000,494.0000,2224.0000,1561.0000,-1345.0000,-2228.0000,494.0000,-1198.0000,2555.0000,1892.0000,-1709.0000,-477.0000,437.0000
-970.0000,-2730.0000,-462.0000,-1357.0000,-499.0000,-756.0000,1451.0000,347.0000,2150.0000,1304.0000,-1419.0000,-1897.0000,420.0000,-1124.0000,2481.0000,2113.0000,-1181.0000,-477.0000,297.0000
-970.0000,-2695.0000,-646.0000,-1251.0000,-646.0000,-756.0000,1377.0000,200.0000,2076.0000,1120.0000,-1676.0000,-1787.0000,273.0000,-1087.0000,2371.0000,2444.0000,-1287.0000,-512.0000,226.0000
-1005.0000,-2307.0000,-609.0000,-1181.0000,-646.0000,-535.0000,1488.0000,89.0000,2003.0000,1083.0000,-1603.0000,-1419.0000,273.0000,-793.0000,2260.0000,2187.0000,-1005.0000,-266.0000,332.0000
-864.0000,-2096.0000,-572.0000,-899.0000,-683.0000,-462.0000,1304.0000,16.0000,1929.0000,715.0000,-1603.0000,-1308.0000,200.0000,-867.0000,2187.0000,2334.0000,-653.0000,-195.0000,85.0000
-899.0000,-1779.0000,-388.0000,-829.0000,-609.0000,-315.0000,1267.0000,-57.0000,1856.0000,641.0000,-1676.0000,-1161.0000,163.0000,-756.0000,2113.0000,2260.0000,-653.0000,50.0000,121.0000
-723.0000,-1357.0000,-241.0000,-618.0000,-535.0000,-131.0000,1083.0000,-167.0000,1819.0000,273.0000,-1419.0000,-1014.0000,126.0000,-793.0000,2003.0000,2481.0000,-19.0000,121.0000,50.0000
-547.0000,-1287.0000,-315.0000,-442.0000,-609.0000,-204.0000,715.0000,-351.0000,1451.0000,-94.0000,-1455.0000,-1087.0000,-57.0000,-977.0000,1966.0000,2371.0000,85.0000,15.0000,-125.0000
-477.0000,-935.0000,-315.0000,-407.0000,-535.0000,-131.0000,568.0000,-499.0000,972.0000,-204.0000,-1271.0000,-867.0000,-131.0000,-830.0000,1892.0000,2297.0000,332.0000,121.0000,-55.0000
-266.0000,-759.0000,-499.0000,-231.0000,-646.0000,-131.0000,126.0000,-646.0000,715.0000,-609.0000,-1087.0000,-793.0000,-278.0000,-793.0000,1340.0000,2187.0000,719.0000,15.0000,-266.0000
-301.0000,-512.0000,-719.0000,-266.0000,-756.0000,-94.0000,-94.0000,-683.0000,200.0000,-719.0000,-1124.0000,-683.0000,-351.0000,-646.0000,788.0000,1340.0000,367.0000,85.0000,-301.0000
-231.0000,-195.0000,-867.0000,-371.0000,-793.0000,89.0000,-315.0000,-719.0000,-94.0000,-903.0000,-830.0000,-388.0000,-351.0000,-535.0000,457.0000,310.0000,508.0000,50.0000,-301.0000
-266.0000,-266.0000,-1161.0000,-547.0000,-940.0000,-57.0000,-609.0000,-793.0000,-499.0000,-1014.0000,-830.0000,-462.0000,-499.0000,-683.0000,89.0000,641.0000,191.0000,-195.0000,-371.0000
-512.0000,-160.0000,-1271.0000,-1005.0000,-940.0000,-131.0000,-462.0000,-683.0000,-793.0000,-646.0000,-756.0000,-351.0000,-462.0000,-572.0000,-131.0000,1120.0000,-90.0000,-231.0000,-125.0000
-547.0000,-266.0000,-1382.0000,-1251.0000,-977.0000,-241.0000,-609.0000,-609.0000,-903.0000,-609.0000,-683.0000,-425.0000,-499.0000,-683.0000,-425.0000,1708.0000,85.0000,-442.0000,-195.0000
-794.0000,-407.0000,-1529.0000,-1392.0000,-977.0000,-425.0000,-646.0000,-572.0000,-1271.0000,-535.0000,-903.0000,-499.0000,-535.0000,-719.0000,-646.0000,1672.0000,-336.0000,-442.0000,-160.0000
-935.0000,-301.0000,-1529.0000,-1427.0000,-903.0000,-351.0000,-683.0000,-572.0000,-1382.0000,-609.0000,-830.0000,-278.0000,-499.0000,-683.0000,-719.0000,1304.0000,-231.0000,-442.0000,-90.0000
-1005.0000,-477.0000,-1639.0000,-1322.0000,-1051.0000,-462.0000,-977.0000,-572.0000,-1566.0000,-793.0000,-977.0000,-351.0000,-609.0000,-719.0000,-940.0000,1083.0000,-407.0000,-512.0000,-266.0000
-1251.0000,-442.0000,-1566.0000,-1392.0000,-1051.0000,-351.0000,-867.0000,-425.0000,-1750.0000,-683.0000,-1087.0000,-167.0000,-609.0000,-462.0000,-867.0000,126.0000,-759.0000,-266.0000,-90.0000
-1251.0000,-336.0000,-1419.0000,-1181.0000,-977.0000,-241.0000,-940.0000,-315.0000,-1566.0000,-793.0000,-977.0000,52.0000,-572.0000,-315.0000,-903.0000,-462.0000,-618.0000,-195.0000,-195.0000
-1322.0000,-301.0000,-1308.0000,-1040.0000,-903.0000,-204.0000,-903.0000,-315.0000,-1639.0000,-719.0000,-1124.0000,89.0000,-572.0000,-204.0000,-903.0000,-793.0000,-1005.0000,-19.0000,-160.0000
-1287.0000,-90.0000,-1051.0000,-970.0000,-756.0000,16.0000,-683.0000,-351.0000,-1419.0000,-609.0000,-940.0000,347.0000,-351.0000,16.0000,-793.0000,-1161.0000,-864.0000,226.0000,50.0000
-1111.0000,-125.0000,-940.0000,-688.0000,-719.0000,52.0000,-719.0000,-315.0000,-1235.0000,-683.0000,-903.0000,273.0000,-315.0000,-57.0000,-830.0000,-977.0000,-688.0000,226.0000,-19.0000
-1111.0000,50.0000,-756.0000,-547.0000,-499.0000,163.0000,-462.0000,-204.0000,-1198.0000,-425.0000,-830.0000,420.0000,-167.0000,163.0000,-756.0000,-1235.0000,-759.0000,437.0000,156.0000
-899.0000,297.0000,-499.0000,-231.0000,-315.0000,347.0000,-425.0000,-167.0000,-867.0000,-609.0000,-572.0000,531.0000,-57.0000,273.0000,-793.0000,-1271.0000,-301.0000,508.0000,121.0000
-759.0000,261.0000,-388.0000,50.0000,-278.0000,384.0000,-425.0000,-131.0000,-903.0000,-756.0000,-609.0000,420.0000,-94.0000,236.0000,-940.0000,-1235.0000,-442.0000,578.0000,50.0000
-688.0000,543.0000,-204.0000,226.0000,-131.0000,531.0000,-278.0000,-94.0000,-867.0000,-756.0000,-462.0000,604.0000,-20.0000,420.0000,-940.0000,-1676.0000,-301.0000,754.0000,121.0000
-477.0000,684.0000,-131.0000,613.0000,-167.0000,604.0000,-499.0000,-131.0000,-830.0000,-903.0000,-425.0000,641.0000,-131.0000,420.0000,-1051.0000,-1860.0000,-55.0000,649.0000,-90.0000
-477.0000,1001.0000,16.0000,789.0000,-131.0000,641.0000,-462.0000,-167.0000,-977.0000,-756.0000,-499.0000,1009.0000,-204.0000,715.0000,-1124.0000,-2523.0000,-195.0000,649.0000,-55.0000
-371.0000,1493.0000,310.0000,1036.0000,-20.0000,678.0000,-535.0000,-241.0000,-793.0000,-793.0000,-241.0000,1782.0000,-204.0000,1083.0000,-1308.0000,-3075.0000,191.0000,437.0000,-90.0000
-301.0000,1599.0000,494.0000,1212.0000,52.0000,494.0000,-793.0000,-388.0000,-867.0000,-793.0000,-131.0000,2444.0000,-351.0000,1193.0000,-1639.0000,-3075.0000,-19.0000,191.0000,-231.0000
-336.0000,1810.0000,899.0000,1212.0000,420.0000,494.0000,-756.0000,-351.0000,-1014.0000,-499.0000,384.0000,2555.0000,-278.0000,1524.0000,-1823.0000,-3185.0000,-90.0000,297.0000,-160.0000
-19.0000,1881.0000,1230.0000,1599.0000,715.0000,604.0000,-1161.0000,-167.0000,-1198.0000,-462.0000,1009.0000,2444.0000,-315.0000,1414.0000,-2155.0000,-3038.0000,261.0000,473.0000,-547.0000
437.0000,2373.0000,1635.0000,2092.0000,788.0000,788.0000,-1419.0000,126.0000,-1639.0000,-131.0000,1414.0000,1561.0000,-535.0000,1009.0000,-2375.0000,-2891.0000,473.0000,825.0000,-759.0000
1177.0000,2585.0000,1929.0000,2373.0000,604.0000,788.0000,-1603.0000,273.0000,-1529.0000,200.0000,1782.0000,1304.0000,-719.0000,825.0000,-2228.0000,-2780.0000,1071.0000,719.0000,-864.0000
